# Filter ID: ED187
# Gemini Filter Name (header): CO_G1124
# 42mm diameter. INFRASIL 6.00mm thickness
# Central Wavelength: 2.360 um
# Note: Measurements taken at room temp and then calculated to 
# 70K using correlation measurements from Cold test witness
# Created: 2012aug16
# Author: R. Carrasco
# Lambda(nm) Transmission
2240.00    0.00000
2250.00    0.00000
2260.00    0.00109
2260.25    0.00096
2260.50    0.00094
2260.75    0.00099
2261.00    0.00108
2261.25    0.00113
2261.50    0.00114
2261.75    0.00107
2262.00    0.00111
2262.25    0.00104
2262.50    0.00108
2262.75    0.00109
2263.00    0.00122
2263.25    0.00125
2263.50    0.00121
2263.75    0.00112
2264.00    0.00123
2264.25    0.00120
2264.50    0.00119
2264.75    0.00137
2265.00    0.00127
2265.25    0.00123
2265.50    0.00119
2265.75    0.00126
2266.00    0.00139
2266.25    0.00137
2266.50    0.00136
2266.75    0.00125
2267.00    0.00127
2267.25    0.00133
2267.50    0.00138
2267.75    0.00144
2268.00    0.00148
2268.25    0.00139
2268.50    0.00130
2268.75    0.00147
2269.00    0.00151
2269.25    0.00147
2269.50    0.00139
2269.75    0.00159
2270.00    0.00155
2270.25    0.00160
2270.50    0.00160
2270.75    0.00165
2271.00    0.00163
2271.25    0.00163
2271.50    0.00160
2271.75    0.00171
2272.00    0.00163
2272.25    0.00170
2272.50    0.00184
2272.75    0.00169
2273.00    0.00178
2273.25    0.00184
2273.50    0.00176
2273.75    0.00189
2274.00    0.00179
2274.25    0.00196
2274.50    0.00194
2274.75    0.00191
2275.00    0.00201
2275.25    0.00198
2275.50    0.00203
2275.75    0.00210
2276.00    0.00207
2276.25    0.00209
2276.50    0.00210
2276.75    0.00223
2277.00    0.00224
2277.25    0.00211
2277.50    0.00221
2277.75    0.00225
2278.00    0.00230
2278.25    0.00235
2278.50    0.00240
2278.75    0.00242
2279.00    0.00238
2279.25    0.00238
2279.50    0.00253
2279.75    0.00256
2280.00    0.00263
2280.25    0.00262
2280.50    0.00273
2280.75    0.00271
2281.00    0.00283
2281.25    0.00275
2281.50    0.00273
2281.75    0.00287
2282.00    0.00282
2282.25    0.00304
2282.50    0.00301
2282.75    0.00320
2283.00    0.00301
2283.25    0.00311
2283.50    0.00326
2283.75    0.00322
2284.00    0.00332
2284.25    0.00331
2284.50    0.00329
2284.75    0.00344
2285.00    0.00350
2285.25    0.00360
2285.50    0.00360
2285.75    0.00368
2286.00    0.00371
2286.25    0.00374
2286.50    0.00389
2286.75    0.00394
2287.00    0.00402
2287.25    0.00399
2287.50    0.00410
2287.75    0.00426
2288.00    0.00430
2288.25    0.00435
2288.50    0.00438
2288.75    0.00443
2289.00    0.00455
2289.25    0.00471
2289.50    0.00472
2289.75    0.00472
2290.00    0.00485
2290.25    0.00504
2290.50    0.00510
2290.75    0.00515
2291.00    0.00527
2291.25    0.00534
2291.50    0.00543
2291.75    0.00557
2292.00    0.00564
2292.25    0.00579
2292.50    0.00590
2292.75    0.00598
2293.00    0.00610
2293.25    0.00625
2293.50    0.00636
2293.75    0.00647
2294.00    0.00655
2294.25    0.00666
2294.50    0.00681
2294.75    0.00700
2295.00    0.00707
2295.25    0.00720
2295.50    0.00743
2295.75    0.00745
2296.00    0.00758
2296.25    0.00782
2296.50    0.00797
2296.75    0.00809
2297.00    0.00819
2297.25    0.00835
2297.50    0.00861
2297.75    0.00878
2298.00    0.00878
2298.25    0.00914
2298.50    0.00928
2298.75    0.00951
2299.00    0.00977
2299.25    0.00986
2299.50    0.01003
2299.75    0.01023
2300.00    0.01059
2300.25    0.01080
2300.50    0.01098
2300.75    0.01119
2301.00    0.01150
2301.25    0.01173
2301.50    0.01183
2301.75    0.01226
2302.00    0.01249
2302.25    0.01275
2302.50    0.01304
2302.75    0.01328
2303.00    0.01346
2303.25    0.01386
2303.50    0.01427
2303.75    0.01450
2304.00    0.01479
2304.25    0.01521
2304.50    0.01545
2304.75    0.01582
2305.00    0.01615
2305.25    0.01650
2305.50    0.01695
2305.75    0.01739
2306.00    0.01775
2306.25    0.01811
2306.50    0.01860
2306.75    0.01886
2307.00    0.01942
2307.25    0.01997
2307.50    0.02032
2307.75    0.02092
2308.00    0.02138
2308.25    0.02190
2308.50    0.02236
2308.75    0.02283
2309.00    0.02352
2309.25    0.02412
2309.50    0.02472
2309.75    0.02526
2310.00    0.02591
2310.25    0.02658
2310.50    0.02720
2310.75    0.02792
2311.00    0.02850
2311.25    0.02932
2311.50    0.03001
2311.75    0.03076
2312.00    0.03164
2312.25    0.03221
2312.50    0.03322
2312.75    0.03396
2313.00    0.03496
2313.25    0.03582
2313.50    0.03671
2313.75    0.03770
2314.00    0.03856
2314.25    0.03976
2314.50    0.04062
2314.75    0.04183
2315.00    0.04298
2315.25    0.04388
2315.50    0.04519
2315.75    0.04631
2316.00    0.04764
2316.25    0.04906
2316.50    0.05016
2316.75    0.05167
2317.00    0.05281
2317.25    0.05451
2317.50    0.05566
2317.75    0.05742
2318.00    0.05910
2318.25    0.06053
2318.50    0.06243
2318.75    0.06384
2319.00    0.06582
2319.25    0.06753
2319.50    0.06939
2319.75    0.07174
2320.00    0.07331
2320.25    0.07581
2320.50    0.07739
2320.75    0.07986
2321.00    0.08220
2321.25    0.08429
2321.50    0.08702
2321.75    0.08900
2322.00    0.09213
2322.25    0.09437
2322.50    0.09715
2322.75    0.09996
2323.00    0.10256
2323.25    0.10620
2323.50    0.10851
2323.75    0.11209
2324.00    0.11508
2324.25    0.11833
2324.50    0.12209
2324.75    0.12499
2325.00    0.12942
2325.25    0.13234
2325.50    0.13661
2325.75    0.14029
2326.00    0.14429
2326.25    0.14896
2326.50    0.15234
2326.75    0.15774
2327.00    0.16131
2327.25    0.16636
2327.50    0.17121
2327.75    0.17570
2328.00    0.18169
2328.25    0.18553
2328.50    0.19200
2328.75    0.19704
2329.00    0.20249
2329.25    0.20874
2329.50    0.21318
2329.75    0.22068
2330.00    0.22561
2330.25    0.23292
2330.50    0.23916
2330.75    0.24532
2331.00    0.25269
2331.25    0.25836
2331.50    0.26698
2331.75    0.27332
2332.00    0.28127
2332.25    0.28916
2332.50    0.29571
2332.75    0.30488
2333.00    0.31148
2333.25    0.32103
2333.50    0.32881
2333.75    0.33725
2334.00    0.34664
2334.25    0.35353
2334.50    0.36407
2334.75    0.37189
2335.00    0.38222
2335.25    0.39149
2335.50    0.39995
2335.75    0.41077
2336.00    0.41837
2336.25    0.43014
2336.50    0.43873
2336.75    0.44946
2337.00    0.46018
2337.25    0.46875
2337.50    0.48058
2337.75    0.48855
2338.00    0.50062
2338.25    0.51014
2338.50    0.52077
2338.75    0.53224
2339.00    0.54055
2339.25    0.55317
2339.50    0.56126
2339.75    0.57326
2340.00    0.58352
2340.25    0.59347
2340.50    0.60507
2340.75    0.61305
2341.00    0.62528
2341.25    0.63415
2341.50    0.64491
2341.75    0.65518
2342.00    0.66375
2342.25    0.67538
2342.50    0.68245
2342.75    0.69400
2343.00    0.70288
2343.25    0.71215
2343.50    0.72200
2343.75    0.72911
2344.00    0.73976
2344.25    0.74633
2344.50    0.75609
2344.75    0.76423
2345.00    0.77165
2345.25    0.78107
2345.50    0.78674
2345.75    0.79578
2346.00    0.80157
2346.25    0.80959
2346.50    0.81596
2346.75    0.82197
2347.00    0.82957
2347.25    0.83546
2347.50    0.84185
2347.75    0.84728
2348.00    0.85257
2348.25    0.85825
2348.50    0.86246
2348.75    0.86861
2349.00    0.87259
2349.25    0.87779
2349.50    0.88225
2349.75    0.88607
2350.00    0.89071
2350.25    0.89381
2350.50    0.89819
2350.75    0.90123
2351.00    0.90500
2351.25    0.90832
2351.50    0.91069
2351.75    0.91412
2352.00    0.91639
2352.25    0.91930
2352.50    0.92160
2352.75    0.92388
2353.00    0.92629
2353.25    0.92780
2353.50    0.92988
2353.75    0.93157
2354.00    0.93347
2354.25    0.93493
2354.50    0.93611
2354.75    0.93779
2355.00    0.93826
2355.25    0.93989
2355.50    0.94062
2355.75    0.94165
2356.00    0.94270
2356.25    0.94329
2356.50    0.94388
2356.75    0.94431
2357.00    0.94505
2357.25    0.94547
2357.50    0.94589
2357.75    0.94620
2358.00    0.94611
2358.25    0.94639
2358.50    0.94631
2358.75    0.94659
2359.00    0.94668
2359.25    0.94690
2359.50    0.94657
2359.75    0.94620
2360.00    0.94631
2360.25    0.94610
2360.50    0.94553
2360.75    0.94543
2361.00    0.94517
2361.25    0.94458
2361.50    0.94440
2361.75    0.94405
2362.00    0.94363
2362.25    0.94328
2362.50    0.94265
2362.75    0.94191
2363.00    0.94131
2363.25    0.94100
2363.50    0.94027
2363.75    0.93977
2364.00    0.93934
2364.25    0.93853
2364.50    0.93793
2364.75    0.93725
2365.00    0.93674
2365.25    0.93617
2365.50    0.93521
2365.75    0.93457
2366.00    0.93365
2366.25    0.93302
2366.50    0.93221
2366.75    0.93184
2367.00    0.93098
2367.25    0.92991
2367.50    0.92943
2367.75    0.92829
2368.00    0.92775
2368.25    0.92722
2368.50    0.92624
2368.75    0.92534
2369.00    0.92439
2369.25    0.92380
2369.50    0.92242
2369.75    0.92193
2370.00    0.92119
2370.25    0.92033
2370.50    0.91952
2370.75    0.91878
2371.00    0.91781
2371.25    0.91695
2371.50    0.91639
2371.75    0.91581
2372.00    0.91477
2372.25    0.91417
2372.50    0.91307
2372.75    0.91215
2373.00    0.91147
2373.25    0.91072
2373.50    0.91001
2373.75    0.90912
2374.00    0.90844
2374.25    0.90761
2374.50    0.90700
2374.75    0.90627
2375.00    0.90526
2375.25    0.90473
2375.50    0.90378
2375.75    0.90311
2376.00    0.90261
2376.25    0.90166
2376.50    0.90084
2376.75    0.90048
2377.00    0.89954
2377.25    0.89891
2377.50    0.89821
2377.75    0.89741
2378.00    0.89685
2378.25    0.89649
2378.50    0.89571
2378.75    0.89533
2379.00    0.89420
2379.25    0.89393
2379.50    0.89316
2379.75    0.89285
2380.00    0.89252
2380.25    0.89180
2380.50    0.89147
2380.75    0.89095
2381.00    0.89022
2381.25    0.88998
2381.50    0.88936
2381.75    0.88915
2382.00    0.88863
2382.25    0.88815
2382.50    0.88763
2382.75    0.88739
2383.00    0.88744
2383.25    0.88697
2383.50    0.88649
2383.75    0.88632
2384.00    0.88593
2384.25    0.88564
2384.50    0.88541
2384.75    0.88505
2385.00    0.88513
2385.25    0.88502
2385.50    0.88469
2385.75    0.88438
2386.00    0.88428
2386.25    0.88423
2386.50    0.88413
2386.75    0.88410
2387.00    0.88388
2387.25    0.88389
2387.50    0.88377
2387.75    0.88358
2388.00    0.88375
2388.25    0.88347
2388.50    0.88365
2388.75    0.88353
2389.00    0.88365
2389.25    0.88371
2389.50    0.88370
2389.75    0.88365
2390.00    0.88383
2390.25    0.88411
2390.50    0.88397
2390.75    0.88435
2391.00    0.88410
2391.25    0.88440
2391.50    0.88432
2391.75    0.88442
2392.00    0.88451
2392.25    0.88450
2392.50    0.88466
2392.75    0.88492
2393.00    0.88480
2393.25    0.88491
2393.50    0.88482
2393.75    0.88480
2394.00    0.88477
2394.25    0.88471
2394.50    0.88468
2394.75    0.88466
2395.00    0.88463
2395.25    0.88418
2395.50    0.88440
2395.75    0.88376
2396.00    0.88352
2396.25    0.88321
2396.50    0.88299
2396.75    0.88240
2397.00    0.88213
2397.25    0.88173
2397.50    0.88104
2397.75    0.88016
2398.00    0.87955
2398.25    0.87872
2398.50    0.87774
2398.75    0.87659
2399.00    0.87601
2399.25    0.87463
2399.50    0.87330
2399.75    0.87187
2400.00    0.87064
2400.25    0.86903
2400.50    0.86709
2400.75    0.86583
2401.00    0.86338
2401.25    0.86170
2401.50    0.85938
2401.75    0.85715
2402.00    0.85487
2402.25    0.85194
2402.50    0.84962
2402.75    0.84624
2403.00    0.84357
2403.25    0.84022
2403.50    0.83672
2403.75    0.83379
2404.00    0.82913
2404.25    0.82593
2404.50    0.82147
2404.75    0.81737
2405.00    0.81315
2405.25    0.80816
2405.50    0.80441
2405.75    0.79853
2406.00    0.79373
2406.25    0.78812
2406.50    0.78230
2406.75    0.77754
2407.00    0.77099
2407.25    0.76615
2407.50    0.75855
2407.75    0.75246
2408.00    0.74580
2408.25    0.73871
2408.50    0.73301
2408.75    0.72489
2409.00    0.71926
2409.25    0.71021
2409.50    0.70268
2409.75    0.69561
2410.00    0.68707
2410.25    0.68086
2410.50    0.67141
2410.75    0.66439
2411.00    0.65526
2411.25    0.64632
2411.50    0.63901
2411.75    0.62912
2412.00    0.62230
2412.25    0.61240
2412.50    0.60448
2412.75    0.59514
2413.00    0.58569
2413.25    0.57845
2413.50    0.56770
2413.75    0.56048
2414.00    0.55009
2414.25    0.54112
2414.50    0.53237
2414.75    0.52239
2415.00    0.51544
2415.25    0.50469
2415.50    0.49744
2415.75    0.48705
2416.00    0.47792
2416.25    0.47016
2416.50    0.45984
2416.75    0.45284
2417.00    0.44282
2417.25    0.43524
2417.50    0.42593
2417.75    0.41663
2418.00    0.40967
2418.25    0.39962
2418.50    0.39305
2418.75    0.38377
2419.00    0.37606
2419.25    0.36830
2419.50    0.35939
2419.75    0.35317
2420.00    0.34394
2420.25    0.33754
2420.50    0.32954
2420.75    0.32217
2421.00    0.31585
2421.25    0.30758
2421.50    0.30209
2421.75    0.29413
2422.00    0.28807
2422.25    0.28154
2422.50    0.27466
2422.75    0.26947
2423.00    0.26214
2423.25    0.25701
2423.50    0.25015
2423.75    0.24465
2424.00    0.23911
2424.25    0.23280
2424.50    0.22852
2424.75    0.22220
2425.00    0.21761
2425.25    0.21204
2425.50    0.20685
2425.75    0.20267
2426.00    0.19706
2426.25    0.19327
2426.50    0.18800
2426.75    0.18371
2427.00    0.17937
2427.25    0.17489
2427.50    0.17153
2427.75    0.16662
2428.00    0.16337
2428.25    0.15902
2428.50    0.15511
2428.75    0.15174
2429.00    0.14771
2429.25    0.14506
2429.50    0.14092
2429.75    0.13815
2430.00    0.13449
2430.25    0.13117
2430.50    0.12861
2430.75    0.12510
2431.00    0.12269
2431.25    0.11941
2431.50    0.11690
2431.75    0.11414
2432.00    0.11122
2432.25    0.10935
2432.50    0.10615
2432.75    0.10432
2433.00    0.10149
2433.25    0.09911
2433.50    0.09706
2433.75    0.09457
2434.00    0.09283
2434.25    0.09027
2434.50    0.08850
2434.75    0.08623
2435.00    0.08420
2435.25    0.08243
2435.50    0.08032
2435.75    0.07872
2436.00    0.07665
2436.25    0.07512
2436.50    0.07345
2436.75    0.07158
2437.00    0.07036
2437.25    0.06847
2437.50    0.06705
2437.75    0.06553
2438.00    0.06409
2438.25    0.06281
2438.50    0.06128
2438.75    0.06013
2439.00    0.05867
2439.25    0.05755
2439.50    0.05626
2439.75    0.05506
2440.00    0.05395
2440.25    0.05261
2440.50    0.05170
2440.75    0.05045
2441.00    0.04924
2441.25    0.04842
2441.50    0.04727
2441.75    0.04641
2442.00    0.04527
2442.25    0.04451
2442.50    0.04355
2442.75    0.04260
2443.00    0.04172
2443.25    0.04079
2443.50    0.04016
2443.75    0.03918
2444.00    0.03839
2444.25    0.03755
2444.50    0.03689
2444.75    0.03612
2445.00    0.03534
2445.25    0.03473
2445.50    0.03388
2445.75    0.03317
2446.00    0.03263
2446.25    0.03185
2446.50    0.03137
2446.75    0.03060
2447.00    0.03012
2447.25    0.02947
2447.50    0.02891
2447.75    0.02835
2448.00    0.02769
2448.25    0.02738
2448.50    0.02672
2448.75    0.02620
2449.00    0.02565
2449.25    0.02519
2449.50    0.02485
2449.75    0.02423
2450.00    0.02397
2450.25    0.02329
2450.50    0.02284
2450.75    0.02245
2451.00    0.02218
2451.25    0.02171
2451.50    0.02122
2451.75    0.02086
2452.00    0.02043
2452.25    0.02005
2452.50    0.01966
2452.75    0.01922
2453.00    0.01909
2453.25    0.01866
2453.50    0.01837
2453.75    0.01801
2454.00    0.01765
2454.25    0.01734
2454.50    0.01703
2454.75    0.01679
2455.00    0.01632
2455.25    0.01615
2455.50    0.01584
2455.75    0.01559
2456.00    0.01529
2456.25    0.01501
2456.50    0.01475
2456.75    0.01446
2457.00    0.01413
2457.25    0.01403
2457.50    0.01377
2457.75    0.01352
2458.00    0.01322
2458.25    0.01310
2458.50    0.01292
2458.75    0.01262
2459.00    0.01246
2459.25    0.01223
2459.50    0.01199
2459.75    0.01179
2460.00    0.01159
2460.25    0.01152
2460.50    0.01126
2460.75    0.01100
2461.00    0.01090
2461.25    0.01066
2461.50    0.01049
2461.75    0.01034
2462.00    0.01015
2462.25    0.00997
2462.50    0.00984
2462.75    0.00961
2463.00    0.00955
2463.25    0.00940
2463.50    0.00922
2463.75    0.00905
2464.00    0.00895
2464.25    0.00882
2464.50    0.00863
2464.75    0.00848
2465.00    0.00830
2465.25    0.00834
2465.50    0.00820
2465.75    0.00801
2466.00    0.00779
2466.25    0.00770
2466.50    0.00764
2466.75    0.00748
2467.00    0.00731
2467.25    0.00744
2467.50    0.00727
2467.75    0.00708
2468.00    0.00690
2468.25    0.00682
2468.50    0.00680
2468.75    0.00670
2469.00    0.00656
2469.25    0.00643
2469.50    0.00636
2469.75    0.00625
2470.00    0.00619
2470.25    0.00607
2470.50    0.00609
2470.75    0.00592
2471.00    0.00582
2471.25    0.00576
2471.50    0.00565
2471.75    0.00561
2472.00    0.00553
2472.25    0.00536
2472.50    0.00538
2472.75    0.00526
2473.00    0.00506
2473.25    0.00517
2473.50    0.00505
2473.75    0.00501
2474.00    0.00496
2474.25    0.00496
2474.50    0.00456
2474.75    0.00464
2475.00    0.00468
2475.25    0.00459
2475.50    0.00450
2475.75    0.00441
2476.00    0.00439
2476.25    0.00443
2476.50    0.00418
2476.75    0.00430
2477.00    0.00425
2477.25    0.00415
2477.50    0.00405
2477.75    0.00402
2478.00    0.00390
2478.25    0.00404
2478.50    0.00384
2478.75    0.00374
2479.00    0.00381
2479.25    0.00365
2479.50    0.00372
2479.75    0.00366
2480.00    0.00360
2480.25    0.00353
2480.50    0.00350
2480.75    0.00343
2481.00    0.00341
2481.25    0.00335
2481.50    0.00332
2481.75    0.00331
2482.00    0.00330
2482.25    0.00307
2482.50    0.00319
2482.75    0.00315
2483.00    0.00309
2483.25    0.00295
2483.50    0.00292
2483.75    0.00296
2484.00    0.00285
2484.25    0.00295
2484.50    0.00290
2484.75    0.00277
2485.00    0.00267
2485.25    0.00270
2485.50    0.00267
2485.75    0.00272
2486.00    0.00265
2486.25    0.00266
2486.50    0.00254
2486.75    0.00260
2487.00    0.00247
2487.25    0.00252
2487.50    0.00245
2487.75    0.00240
2488.00    0.00240
2488.25    0.00234
2488.50    0.00233
2488.75    0.00232
2489.00    0.00229
2489.25    0.00239
2489.50    0.00223
2489.75    0.00216
2490.00    0.00224
2490.25    0.00226
2490.50    0.00201
2490.75    0.00219
2491.00    0.00215
2491.25    0.00199
2491.50    0.00195
2491.75    0.00215
2492.00    0.00202
2492.25    0.00194
2492.50    0.00194
2492.75    0.00194
2493.00    0.00200
2493.25    0.00192
2493.50    0.00186
2493.75    0.00184
2494.00    0.00188
2494.25    0.00189
2494.50    0.00179
2494.75    0.00184
2495.00    0.00178
2495.25    0.00169
2495.50    0.00180
2495.75    0.00164
2496.00    0.00174
2496.25    0.00167
2496.50    0.00167
2496.75    0.00167
2497.00    0.00158
2497.25    0.00163
2497.50    0.00164
2497.75    0.00155
2498.00    0.00153
2498.25    0.00153
2498.50    0.00142
2498.75    0.00163
2499.00    0.00151
2499.25    0.00132
2499.50    0.00145
2499.75    0.00155
2500.00    0.00139
2510.00    0.00000
2520.00    0.00000
