# Filter ID: ED188
# Gemini Filter Name: H2O_G1119
# 42mm diameter Infrasil 6.00mm thickness
# Central Wavelength: 2.000 um
# Note: Measurements taken at room temp and then calculated to 
# 70K using correlation measurements from Cold test witness
# Created: 2012aug16
# Author: R. Carrasco
# Lambda(nm) Transmission
1880.00    0.00000
1890.00    0.00000
1900.00    0.00086
1900.10    0.00083
1900.20    0.00083
1900.30    0.00089
1900.40    0.00097
1900.50    0.00087
1900.60    0.00088
1900.70    0.00083
1900.80    0.00091
1900.90    0.00087
1901.00    0.00094
1901.10    0.00092
1901.20    0.00089
1901.30    0.00085
1901.40    0.00086
1901.50    0.00092
1901.60    0.00094
1901.70    0.00093
1901.80    0.00092
1901.90    0.00095
1902.00    0.00090
1902.10    0.00094
1902.20    0.00093
1902.30    0.00094
1902.40    0.00097
1902.50    0.00099
1902.60    0.00096
1902.70    0.00091
1902.80    0.00103
1902.90    0.00099
1903.00    0.00096
1903.10    0.00097
1903.20    0.00098
1903.30    0.00097
1903.40    0.00099
1903.50    0.00103
1903.60    0.00104
1903.70    0.00103
1903.80    0.00099
1903.90    0.00103
1904.00    0.00104
1904.10    0.00108
1904.20    0.00101
1904.30    0.00106
1904.40    0.00110
1904.50    0.00105
1904.60    0.00113
1904.70    0.00110
1904.80    0.00109
1904.90    0.00112
1905.00    0.00105
1905.10    0.00109
1905.20    0.00110
1905.30    0.00113
1905.40    0.00117
1905.50    0.00116
1905.60    0.00114
1905.70    0.00108
1905.80    0.00112
1905.90    0.00109
1906.00    0.00115
1906.10    0.00109
1906.20    0.00116
1906.30    0.00115
1906.40    0.00124
1906.50    0.00124
1906.60    0.00124
1906.70    0.00124
1906.80    0.00121
1906.90    0.00124
1907.00    0.00127
1907.10    0.00127
1907.20    0.00124
1907.30    0.00129
1907.40    0.00126
1907.50    0.00127
1907.60    0.00132
1907.70    0.00124
1907.80    0.00134
1907.90    0.00134
1908.00    0.00133
1908.10    0.00127
1908.20    0.00131
1908.30    0.00134
1908.40    0.00135
1908.50    0.00134
1908.60    0.00138
1908.70    0.00139
1908.80    0.00140
1908.90    0.00137
1909.00    0.00136
1909.10    0.00137
1909.20    0.00137
1909.30    0.00133
1909.40    0.00142
1909.50    0.00143
1909.60    0.00144
1909.70    0.00145
1909.80    0.00145
1909.90    0.00141
1910.00    0.00148
1910.10    0.00150
1910.20    0.00144
1910.30    0.00147
1910.40    0.00146
1910.50    0.00155
1910.60    0.00150
1910.70    0.00151
1910.80    0.00148
1910.90    0.00152
1911.00    0.00155
1911.10    0.00152
1911.20    0.00159
1911.30    0.00156
1911.40    0.00158
1911.50    0.00158
1911.60    0.00163
1911.70    0.00160
1911.80    0.00162
1911.90    0.00167
1912.00    0.00165
1912.10    0.00160
1912.20    0.00171
1912.30    0.00169
1912.40    0.00173
1912.50    0.00167
1912.60    0.00167
1912.70    0.00173
1912.80    0.00173
1912.90    0.00178
1913.00    0.00178
1913.10    0.00174
1913.20    0.00178
1913.30    0.00181
1913.40    0.00181
1913.50    0.00180
1913.60    0.00181
1913.70    0.00178
1913.80    0.00192
1913.90    0.00183
1914.00    0.00187
1914.10    0.00192
1914.20    0.00186
1914.30    0.00191
1914.40    0.00193
1914.50    0.00193
1914.60    0.00191
1914.70    0.00202
1914.80    0.00192
1914.90    0.00199
1915.00    0.00198
1915.10    0.00203
1915.20    0.00199
1915.30    0.00199
1915.40    0.00205
1915.50    0.00203
1915.60    0.00207
1915.70    0.00209
1915.80    0.00209
1915.90    0.00206
1916.00    0.00213
1916.10    0.00212
1916.20    0.00220
1916.30    0.00217
1916.40    0.00213
1916.50    0.00219
1916.60    0.00217
1916.70    0.00223
1916.80    0.00222
1916.90    0.00231
1917.00    0.00225
1917.10    0.00228
1917.20    0.00224
1917.30    0.00233
1917.40    0.00236
1917.50    0.00227
1917.60    0.00232
1917.70    0.00235
1917.80    0.00234
1917.90    0.00238
1918.00    0.00239
1918.10    0.00242
1918.20    0.00243
1918.30    0.00245
1918.40    0.00241
1918.50    0.00245
1918.60    0.00241
1918.70    0.00246
1918.80    0.00246
1918.90    0.00253
1919.00    0.00249
1919.10    0.00257
1919.20    0.00259
1919.30    0.00263
1919.40    0.00265
1919.50    0.00265
1919.60    0.00263
1919.70    0.00269
1919.80    0.00266
1919.90    0.00269
1920.00    0.00272
1920.10    0.00277
1920.20    0.00274
1920.30    0.00279
1920.40    0.00284
1920.50    0.00280
1920.60    0.00290
1920.70    0.00289
1920.80    0.00298
1920.90    0.00289
1921.00    0.00291
1921.10    0.00301
1921.20    0.00299
1921.30    0.00300
1921.40    0.00301
1921.50    0.00303
1921.60    0.00304
1921.70    0.00305
1921.80    0.00308
1921.90    0.00314
1922.00    0.00316
1922.10    0.00313
1922.20    0.00318
1922.30    0.00324
1922.40    0.00328
1922.50    0.00325
1922.60    0.00325
1922.70    0.00324
1922.80    0.00329
1922.90    0.00334
1923.00    0.00332
1923.10    0.00338
1923.20    0.00341
1923.30    0.00340
1923.40    0.00340
1923.50    0.00348
1923.60    0.00348
1923.70    0.00354
1923.80    0.00350
1923.90    0.00357
1924.00    0.00363
1924.10    0.00358
1924.20    0.00365
1924.30    0.00367
1924.40    0.00365
1924.50    0.00374
1924.60    0.00379
1924.70    0.00372
1924.80    0.00382
1924.90    0.00378
1925.00    0.00384
1925.10    0.00388
1925.20    0.00390
1925.30    0.00390
1925.40    0.00401
1925.50    0.00408
1925.60    0.00403
1925.70    0.00405
1925.80    0.00408
1925.90    0.00416
1926.00    0.00419
1926.10    0.00418
1926.20    0.00419
1926.30    0.00427
1926.40    0.00428
1926.50    0.00427
1926.60    0.00433
1926.70    0.00432
1926.80    0.00436
1926.90    0.00439
1927.00    0.00450
1927.10    0.00450
1927.20    0.00451
1927.30    0.00458
1927.40    0.00461
1927.50    0.00456
1927.60    0.00469
1927.70    0.00468
1927.80    0.00474
1927.90    0.00476
1928.00    0.00482
1928.10    0.00483
1928.20    0.00495
1928.30    0.00497
1928.40    0.00498
1928.50    0.00500
1928.60    0.00509
1928.70    0.00505
1928.80    0.00515
1928.90    0.00517
1929.00    0.00522
1929.10    0.00520
1929.20    0.00524
1929.30    0.00535
1929.40    0.00537
1929.50    0.00541
1929.60    0.00538
1929.70    0.00552
1929.80    0.00550
1929.90    0.00557
1930.00    0.00560
1930.10    0.00572
1930.20    0.00574
1930.30    0.00577
1930.40    0.00575
1930.50    0.00582
1930.60    0.00580
1930.70    0.00592
1930.80    0.00599
1930.90    0.00599
1931.00    0.00603
1931.10    0.00609
1931.20    0.00616
1931.30    0.00619
1931.40    0.00625
1931.50    0.00626
1931.60    0.00631
1931.70    0.00644
1931.80    0.00639
1931.90    0.00648
1932.00    0.00657
1932.10    0.00661
1932.20    0.00665
1932.30    0.00667
1932.40    0.00672
1932.50    0.00678
1932.60    0.00692
1932.70    0.00687
1932.80    0.00699
1932.90    0.00702
1933.00    0.00714
1933.10    0.00716
1933.20    0.00715
1933.30    0.00729
1933.40    0.00730
1933.50    0.00734
1933.60    0.00743
1933.70    0.00745
1933.80    0.00758
1933.90    0.00760
1934.00    0.00769
1934.10    0.00776
1934.20    0.00783
1934.30    0.00786
1934.40    0.00791
1934.50    0.00804
1934.60    0.00807
1934.70    0.00812
1934.80    0.00818
1934.90    0.00823
1935.00    0.00836
1935.10    0.00836
1935.20    0.00848
1935.30    0.00855
1935.40    0.00862
1935.50    0.00864
1935.60    0.00880
1935.70    0.00882
1935.80    0.00889
1935.90    0.00904
1936.00    0.00906
1936.10    0.00917
1936.20    0.00921
1936.30    0.00930
1936.40    0.00934
1936.50    0.00946
1936.60    0.00949
1936.70    0.00966
1936.80    0.00964
1936.90    0.00977
1937.00    0.00987
1937.10    0.00983
1937.20    0.01003
1937.30    0.01010
1937.40    0.01018
1937.50    0.01029
1937.60    0.01040
1937.70    0.01048
1937.80    0.01057
1937.90    0.01066
1938.00    0.01077
1938.10    0.01085
1938.20    0.01097
1938.30    0.01101
1938.40    0.01109
1938.50    0.01120
1938.60    0.01129
1938.70    0.01144
1938.80    0.01157
1938.90    0.01161
1939.00    0.01175
1939.10    0.01185
1939.20    0.01194
1939.30    0.01208
1939.40    0.01215
1939.50    0.01230
1939.60    0.01235
1939.70    0.01246
1939.80    0.01256
1939.90    0.01271
1940.00    0.01289
1940.10    0.01293
1940.20    0.01302
1940.30    0.01321
1940.40    0.01334
1940.50    0.01346
1940.60    0.01356
1940.70    0.01366
1940.80    0.01378
1940.90    0.01394
1941.00    0.01405
1941.10    0.01415
1941.20    0.01433
1941.30    0.01443
1941.40    0.01456
1941.50    0.01464
1941.60    0.01482
1941.70    0.01496
1941.80    0.01511
1941.90    0.01520
1942.00    0.01533
1942.10    0.01549
1942.20    0.01567
1942.30    0.01578
1942.40    0.01591
1942.50    0.01611
1942.60    0.01622
1942.70    0.01637
1942.80    0.01653
1942.90    0.01664
1943.00    0.01687
1943.10    0.01693
1943.20    0.01712
1943.30    0.01740
1943.40    0.01753
1943.50    0.01764
1943.60    0.01781
1943.70    0.01795
1943.80    0.01817
1943.90    0.01833
1944.00    0.01848
1944.10    0.01868
1944.20    0.01886
1944.30    0.01905
1944.40    0.01925
1944.50    0.01943
1944.60    0.01969
1944.70    0.01988
1944.80    0.02005
1944.90    0.02021
1945.00    0.02041
1945.10    0.02063
1945.20    0.02081
1945.30    0.02103
1945.40    0.02125
1945.50    0.02144
1945.60    0.02164
1945.70    0.02187
1945.80    0.02197
1945.90    0.02228
1946.00    0.02249
1946.10    0.02267
1946.20    0.02292
1946.30    0.02318
1946.40    0.02335
1946.50    0.02364
1946.60    0.02382
1946.70    0.02400
1946.80    0.02442
1946.90    0.02459
1947.00    0.02475
1947.10    0.02500
1947.20    0.02524
1947.30    0.02565
1947.40    0.02573
1947.50    0.02603
1947.60    0.02632
1947.70    0.02664
1947.80    0.02687
1947.90    0.02714
1948.00    0.02745
1948.10    0.02770
1948.20    0.02800
1948.30    0.02831
1948.40    0.02852
1948.50    0.02890
1948.60    0.02909
1948.70    0.02952
1948.80    0.02974
1948.90    0.03000
1949.00    0.03039
1949.10    0.03065
1949.20    0.03089
1949.30    0.03130
1949.40    0.03160
1949.50    0.03204
1949.60    0.03221
1949.70    0.03264
1949.80    0.03287
1949.90    0.03333
1950.00    0.03361
1950.10    0.03389
1950.20    0.03435
1950.30    0.03463
1950.40    0.03500
1950.50    0.03531
1950.60    0.03569
1950.70    0.03617
1950.80    0.03651
1950.90    0.03682
1951.00    0.03724
1951.10    0.03763
1951.20    0.03807
1951.30    0.03838
1951.40    0.03882
1951.50    0.03926
1951.60    0.03972
1951.70    0.04010
1951.80    0.04054
1951.90    0.04102
1952.00    0.04135
1952.10    0.04182
1952.20    0.04222
1952.30    0.04268
1952.40    0.04317
1952.50    0.04363
1952.60    0.04412
1952.70    0.04466
1952.80    0.04509
1952.90    0.04572
1953.00    0.04612
1953.10    0.04657
1953.20    0.04709
1953.30    0.04771
1953.40    0.04820
1953.50    0.04869
1953.60    0.04925
1953.70    0.04986
1953.80    0.05040
1953.90    0.05093
1954.00    0.05135
1954.10    0.05206
1954.20    0.05267
1954.30    0.05322
1954.40    0.05367
1954.50    0.05426
1954.60    0.05502
1954.70    0.05562
1954.80    0.05612
1954.90    0.05678
1955.00    0.05752
1955.10    0.05818
1955.20    0.05871
1955.30    0.05942
1955.40    0.06006
1955.50    0.06079
1955.60    0.06136
1955.70    0.06206
1955.80    0.06279
1955.90    0.06355
1956.00    0.06423
1956.10    0.06478
1956.20    0.06557
1956.30    0.06646
1956.40    0.06723
1956.50    0.06790
1956.60    0.06875
1956.70    0.06950
1956.80    0.07037
1956.90    0.07111
1957.00    0.07185
1957.10    0.07267
1957.20    0.07360
1957.30    0.07437
1957.40    0.07507
1957.50    0.07612
1957.60    0.07706
1957.70    0.07793
1957.80    0.07873
1957.90    0.07962
1958.00    0.08064
1958.10    0.08168
1958.20    0.08261
1958.30    0.08332
1958.40    0.08446
1958.50    0.08557
1958.60    0.08646
1958.70    0.08730
1958.80    0.08829
1958.90    0.08953
1959.00    0.09058
1959.10    0.09153
1959.20    0.09270
1959.30    0.09376
1959.40    0.09491
1959.50    0.09598
1959.60    0.09698
1959.70    0.09812
1959.80    0.09958
1959.90    0.10064
1960.00    0.10177
1960.10    0.10296
1960.20    0.10431
1960.30    0.10547
1960.40    0.10659
1960.50    0.10786
1960.60    0.10933
1960.70    0.11057
1960.80    0.11184
1960.90    0.11314
1961.00    0.11448
1961.10    0.11605
1961.20    0.11724
1961.30    0.11872
1961.40    0.12018
1961.50    0.12192
1961.60    0.12313
1961.70    0.12467
1961.80    0.12625
1961.90    0.12777
1962.00    0.12936
1962.10    0.13074
1962.20    0.13236
1962.30    0.13404
1962.40    0.13572
1962.50    0.13741
1962.60    0.13879
1962.70    0.14062
1962.80    0.14244
1962.90    0.14417
1963.00    0.14582
1963.10    0.14762
1963.20    0.14974
1963.30    0.15151
1963.40    0.15322
1963.50    0.15508
1963.60    0.15697
1963.70    0.15902
1963.80    0.16074
1963.90    0.16259
1964.00    0.16470
1964.10    0.16671
1964.20    0.16880
1964.30    0.17066
1964.40    0.17268
1964.50    0.17483
1964.60    0.17712
1964.70    0.17909
1964.80    0.18111
1964.90    0.18376
1965.00    0.18588
1965.10    0.18810
1965.20    0.19038
1965.30    0.19270
1965.40    0.19521
1965.50    0.19734
1965.60    0.19952
1965.70    0.20220
1965.80    0.20446
1965.90    0.20689
1966.00    0.20928
1966.10    0.21154
1966.20    0.21423
1966.30    0.21711
1966.40    0.21947
1966.50    0.22234
1966.60    0.22516
1966.70    0.22778
1966.80    0.23048
1966.90    0.23326
1967.00    0.23607
1967.10    0.23900
1967.20    0.24171
1967.30    0.24429
1967.40    0.24726
1967.50    0.25013
1967.60    0.25340
1967.70    0.25606
1967.80    0.25914
1967.90    0.26223
1968.00    0.26564
1968.10    0.26845
1968.20    0.27128
1968.30    0.27506
1968.40    0.27825
1968.50    0.28158
1968.60    0.28474
1968.70    0.28811
1968.80    0.29171
1968.90    0.29473
1969.00    0.29809
1969.10    0.30168
1969.20    0.30502
1969.30    0.30853
1969.40    0.31221
1969.50    0.31519
1969.60    0.31903
1969.70    0.32281
1969.80    0.32625
1969.90    0.33001
1970.00    0.33419
1970.10    0.33783
1970.20    0.34196
1970.30    0.34539
1970.40    0.34958
1970.50    0.35354
1970.60    0.35721
1970.70    0.36099
1970.80    0.36482
1970.90    0.36919
1971.00    0.37298
1971.10    0.37729
1971.20    0.38091
1971.30    0.38489
1971.40    0.38953
1971.50    0.39369
1971.60    0.39775
1971.70    0.40184
1971.80    0.40613
1971.90    0.41094
1972.00    0.41496
1972.10    0.41914
1972.20    0.42401
1972.30    0.42820
1972.40    0.43248
1972.50    0.43665
1972.60    0.44153
1972.70    0.44595
1972.80    0.45023
1972.90    0.45480
1973.00    0.45887
1973.10    0.46387
1973.20    0.46834
1973.30    0.47306
1973.40    0.47711
1973.50    0.48200
1973.60    0.48724
1973.70    0.49150
1973.80    0.49614
1973.90    0.50103
1974.00    0.50564
1974.10    0.51016
1974.20    0.51466
1974.30    0.51902
1974.40    0.52407
1974.50    0.52901
1974.60    0.53333
1974.70    0.53791
1974.80    0.54251
1974.90    0.54776
1975.00    0.55277
1975.10    0.55646
1975.20    0.56179
1975.30    0.56708
1975.40    0.57158
1975.50    0.57599
1975.60    0.58129
1975.70    0.58594
1975.80    0.59105
1975.90    0.59491
1976.00    0.59958
1976.10    0.60455
1976.20    0.60966
1976.30    0.61377
1976.40    0.61773
1976.50    0.62276
1976.60    0.62771
1976.70    0.63257
1976.80    0.63631
1976.90    0.64104
1977.00    0.64667
1977.10    0.65112
1977.20    0.65530
1977.30    0.66012
1977.40    0.66481
1977.50    0.66956
1977.60    0.67362
1977.70    0.67706
1977.80    0.68231
1977.90    0.68668
1978.00    0.69124
1978.10    0.69463
1978.20    0.69904
1978.30    0.70385
1978.40    0.70839
1978.50    0.71205
1978.60    0.71601
1978.70    0.72067
1978.80    0.72475
1978.90    0.72908
1979.00    0.73271
1979.10    0.73675
1979.20    0.74111
1979.30    0.74537
1979.40    0.74877
1979.50    0.75246
1979.60    0.75671
1979.70    0.76027
1979.80    0.76354
1979.90    0.76712
1980.00    0.77089
1980.10    0.77494
1980.20    0.77820
1980.30    0.78122
1980.40    0.78526
1980.50    0.78903
1980.60    0.79220
1980.70    0.79531
1980.80    0.79911
1980.90    0.80217
1981.00    0.80553
1981.10    0.80848
1981.20    0.81153
1981.30    0.81440
1981.40    0.81750
1981.50    0.82039
1981.60    0.82278
1981.70    0.82553
1981.80    0.82890
1981.90    0.83174
1982.00    0.83423
1982.10    0.83697
1982.20    0.83970
1982.30    0.84247
1982.40    0.84479
1982.50    0.84714
1982.60    0.84969
1982.70    0.85224
1982.80    0.85418
1982.90    0.85663
1983.00    0.85892
1983.10    0.86128
1983.20    0.86331
1983.30    0.86563
1983.40    0.86727
1983.50    0.86981
1983.60    0.87144
1983.70    0.87301
1983.80    0.87508
1983.90    0.87668
1984.00    0.87911
1984.10    0.88075
1984.20    0.88207
1984.30    0.88376
1984.40    0.88568
1984.50    0.88699
1984.60    0.88845
1984.70    0.88993
1984.80    0.89155
1984.90    0.89292
1985.00    0.89399
1985.10    0.89551
1985.20    0.89699
1985.30    0.89791
1985.40    0.89904
1985.50    0.90022
1985.60    0.90116
1985.70    0.90258
1985.80    0.90365
1985.90    0.90432
1986.00    0.90554
1986.10    0.90641
1986.20    0.90734
1986.30    0.90810
1986.40    0.90888
1986.50    0.90991
1986.60    0.91063
1986.70    0.91110
1986.80    0.91202
1986.90    0.91266
1987.00    0.91340
1987.10    0.91379
1987.20    0.91427
1987.30    0.91477
1987.40    0.91552
1987.50    0.91611
1987.60    0.91632
1987.70    0.91697
1987.80    0.91741
1987.90    0.91779
1988.00    0.91821
1988.10    0.91863
1988.20    0.91885
1988.30    0.91914
1988.40    0.91951
1988.50    0.91967
1988.60    0.91972
1988.70    0.92004
1988.80    0.92021
1988.90    0.92033
1989.00    0.92066
1989.10    0.92077
1989.20    0.92072
1989.30    0.92080
1989.40    0.92081
1989.50    0.92093
1989.60    0.92080
1989.70    0.92093
1989.80    0.92118
1989.90    0.92106
1990.00    0.92106
1990.10    0.92106
1990.20    0.92095
1990.30    0.92080
1990.40    0.92099
1990.50    0.92079
1990.60    0.92081
1990.70    0.92079
1990.80    0.92047
1990.90    0.92047
1991.00    0.92038
1991.10    0.91999
1991.20    0.91982
1991.30    0.91969
1991.40    0.91963
1991.50    0.91928
1991.60    0.91916
1991.70    0.91887
1991.80    0.91870
1991.90    0.91848
1992.00    0.91839
1992.10    0.91816
1992.20    0.91773
1992.30    0.91777
1992.40    0.91745
1992.50    0.91708
1992.60    0.91673
1992.70    0.91654
1992.80    0.91624
1992.90    0.91598
1993.00    0.91571
1993.10    0.91534
1993.20    0.91509
1993.30    0.91479
1993.40    0.91464
1993.50    0.91420
1993.60    0.91393
1993.70    0.91362
1993.80    0.91350
1993.90    0.91288
1994.00    0.91277
1994.10    0.91245
1994.20    0.91221
1994.30    0.91176
1994.40    0.91154
1994.50    0.91117
1994.60    0.91083
1994.70    0.91054
1994.80    0.91018
1994.90    0.90988
1995.00    0.90965
1995.10    0.90919
1995.20    0.90914
1995.30    0.90859
1995.40    0.90837
1995.50    0.90818
1995.60    0.90766
1995.70    0.90732
1995.80    0.90707
1995.90    0.90687
1996.00    0.90625
1996.10    0.90588
1996.20    0.90563
1996.30    0.90518
1996.40    0.90501
1996.50    0.90457
1996.60    0.90436
1996.70    0.90390
1996.80    0.90372
1996.90    0.90346
1997.00    0.90320
1997.10    0.90283
1997.20    0.90249
1997.30    0.90230
1997.40    0.90192
1997.50    0.90152
1997.60    0.90127
1997.70    0.90117
1997.80    0.90098
1997.90    0.90056
1998.00    0.90050
1998.10    0.90015
1998.20    0.89956
1998.30    0.89935
1998.40    0.89910
1998.50    0.89857
1998.60    0.89831
1998.70    0.89817
1998.80    0.89789
1998.90    0.89782
1999.00    0.89759
1999.10    0.89716
1999.20    0.89699
1999.30    0.89652
1999.40    0.89637
1999.50    0.89609
1999.60    0.89571
1999.70    0.89567
1999.80    0.89552
1999.90    0.89487
2000.00    0.89478
2000.10    0.89442
2000.20    0.89425
2000.30    0.89403
2000.40    0.89383
2000.50    0.89360
2000.60    0.89340
2000.70    0.89323
2000.80    0.89316
2000.90    0.89310
2001.00    0.89294
2001.10    0.89263
2001.20    0.89236
2001.30    0.89206
2001.40    0.89183
2001.50    0.89169
2001.60    0.89139
2001.70    0.89147
2001.80    0.89107
2001.90    0.89093
2002.00    0.89085
2002.10    0.89059
2002.20    0.89052
2002.30    0.89037
2002.40    0.89019
2002.50    0.88999
2002.60    0.88986
2002.70    0.88970
2002.80    0.88970
2002.90    0.88942
2003.00    0.88922
2003.10    0.88916
2003.20    0.88890
2003.30    0.88864
2003.40    0.88852
2003.50    0.88823
2003.60    0.88809
2003.70    0.88797
2003.80    0.88782
2003.90    0.88779
2004.00    0.88759
2004.10    0.88746
2004.20    0.88743
2004.30    0.88722
2004.40    0.88714
2004.50    0.88711
2004.60    0.88703
2004.70    0.88682
2004.80    0.88671
2004.90    0.88654
2005.00    0.88643
2005.10    0.88627
2005.20    0.88638
2005.30    0.88615
2005.40    0.88579
2005.50    0.88569
2005.60    0.88555
2005.70    0.88571
2005.80    0.88556
2005.90    0.88548
2006.00    0.88541
2006.10    0.88534
2006.20    0.88531
2006.30    0.88524
2006.40    0.88505
2006.50    0.88488
2006.60    0.88487
2006.70    0.88469
2006.80    0.88452
2006.90    0.88455
2007.00    0.88451
2007.10    0.88444
2007.20    0.88409
2007.30    0.88415
2007.40    0.88413
2007.50    0.88407
2007.60    0.88395
2007.70    0.88398
2007.80    0.88419
2007.90    0.88369
2008.00    0.88385
2008.10    0.88371
2008.20    0.88374
2008.30    0.88382
2008.40    0.88366
2008.50    0.88364
2008.60    0.88356
2008.70    0.88345
2008.80    0.88345
2008.90    0.88333
2009.00    0.88318
2009.10    0.88299
2009.20    0.88303
2009.30    0.88284
2009.40    0.88306
2009.50    0.88295
2009.60    0.88326
2009.70    0.88322
2009.80    0.88323
2009.90    0.88307
2010.00    0.88315
2010.10    0.88300
2010.20    0.88309
2010.30    0.88297
2010.40    0.88275
2010.50    0.88269
2010.60    0.88277
2010.70    0.88291
2010.80    0.88276
2010.90    0.88269
2011.00    0.88294
2011.10    0.88287
2011.20    0.88282
2011.30    0.88282
2011.40    0.88279
2011.50    0.88281
2011.60    0.88281
2011.70    0.88264
2011.80    0.88276
2011.90    0.88285
2012.00    0.88285
2012.10    0.88291
2012.20    0.88270
2012.30    0.88285
2012.40    0.88286
2012.50    0.88285
2012.60    0.88273
2012.70    0.88269
2012.80    0.88278
2012.90    0.88287
2013.00    0.88286
2013.10    0.88286
2013.20    0.88301
2013.30    0.88298
2013.40    0.88290
2013.50    0.88297
2013.60    0.88321
2013.70    0.88320
2013.80    0.88316
2013.90    0.88319
2014.00    0.88329
2014.10    0.88318
2014.20    0.88347
2014.30    0.88340
2014.40    0.88333
2014.50    0.88342
2014.60    0.88375
2014.70    0.88345
2014.80    0.88369
2014.90    0.88386
2015.00    0.88396
2015.10    0.88383
2015.20    0.88387
2015.30    0.88399
2015.40    0.88392
2015.50    0.88400
2015.60    0.88415
2015.70    0.88450
2015.80    0.88462
2015.90    0.88430
2016.00    0.88439
2016.10    0.88476
2016.20    0.88469
2016.30    0.88455
2016.40    0.88477
2016.50    0.88487
2016.60    0.88495
2016.70    0.88496
2016.80    0.88513
2016.90    0.88550
2017.00    0.88554
2017.10    0.88577
2017.20    0.88611
2017.30    0.88601
2017.40    0.88605
2017.50    0.88634
2017.60    0.88645
2017.70    0.88667
2017.80    0.88659
2017.90    0.88677
2018.00    0.88688
2018.10    0.88692
2018.20    0.88703
2018.30    0.88714
2018.40    0.88719
2018.50    0.88731
2018.60    0.88744
2018.70    0.88771
2018.80    0.88789
2018.90    0.88800
2019.00    0.88823
2019.10    0.88820
2019.20    0.88847
2019.30    0.88881
2019.40    0.88890
2019.50    0.88917
2019.60    0.88918
2019.70    0.88952
2019.80    0.88984
2019.90    0.88986
2020.00    0.88994
2020.10    0.89018
2020.20    0.88999
2020.30    0.89022
2020.40    0.89068
2020.50    0.89078
2020.60    0.89106
2020.70    0.89123
2020.80    0.89140
2020.90    0.89185
2021.00    0.89192
2021.10    0.89230
2021.20    0.89234
2021.30    0.89251
2021.40    0.89269
2021.50    0.89301
2021.60    0.89318
2021.70    0.89342
2021.80    0.89364
2021.90    0.89365
2022.00    0.89388
2022.10    0.89403
2022.20    0.89426
2022.30    0.89442
2022.40    0.89462
2022.50    0.89489
2022.60    0.89518
2022.70    0.89521
2022.80    0.89558
2022.90    0.89582
2023.00    0.89593
2023.10    0.89631
2023.20    0.89640
2023.30    0.89649
2023.40    0.89686
2023.50    0.89672
2023.60    0.89717
2023.70    0.89754
2023.80    0.89767
2023.90    0.89783
2024.00    0.89821
2024.10    0.89845
2024.20    0.89861
2024.30    0.89885
2024.40    0.89895
2024.50    0.89935
2024.60    0.89930
2024.70    0.89961
2024.80    0.89979
2024.90    0.89996
2025.00    0.90008
2025.10    0.90025
2025.20    0.90028
2025.30    0.90065
2025.40    0.90079
2025.50    0.90096
2025.60    0.90116
2025.70    0.90113
2025.80    0.90158
2025.90    0.90159
2026.00    0.90168
2026.10    0.90188
2026.20    0.90218
2026.30    0.90220
2026.40    0.90233
2026.50    0.90249
2026.60    0.90257
2026.70    0.90258
2026.80    0.90249
2026.90    0.90276
2027.00    0.90283
2027.10    0.90262
2027.20    0.90303
2027.30    0.90313
2027.40    0.90316
2027.50    0.90338
2027.60    0.90328
2027.70    0.90341
2027.80    0.90324
2027.90    0.90314
2028.00    0.90319
2028.10    0.90314
2028.20    0.90300
2028.30    0.90311
2028.40    0.90292
2028.50    0.90293
2028.60    0.90297
2028.70    0.90291
2028.80    0.90288
2028.90    0.90259
2029.00    0.90257
2029.10    0.90250
2029.20    0.90226
2029.30    0.90188
2029.40    0.90181
2029.50    0.90153
2029.60    0.90142
2029.70    0.90115
2029.80    0.90103
2029.90    0.90083
2030.00    0.90049
2030.10    0.89999
2030.20    0.89968
2030.30    0.89950
2030.40    0.89889
2030.50    0.89859
2030.60    0.89810
2030.70    0.89754
2030.80    0.89727
2030.90    0.89683
2031.00    0.89642
2031.10    0.89605
2031.20    0.89541
2031.30    0.89482
2031.40    0.89421
2031.50    0.89356
2031.60    0.89298
2031.70    0.89222
2031.80    0.89148
2031.90    0.89103
2032.00    0.89027
2032.10    0.88965
2032.20    0.88894
2032.30    0.88796
2032.40    0.88716
2032.50    0.88630
2032.60    0.88510
2032.70    0.88434
2032.80    0.88337
2032.90    0.88235
2033.00    0.88154
2033.10    0.88016
2033.20    0.87933
2033.30    0.87831
2033.40    0.87733
2033.50    0.87620
2033.60    0.87483
2033.70    0.87366
2033.80    0.87267
2033.90    0.87116
2034.00    0.86982
2034.10    0.86836
2034.20    0.86720
2034.30    0.86584
2034.40    0.86444
2034.50    0.86264
2034.60    0.86120
2034.70    0.85946
2034.80    0.85766
2034.90    0.85602
2035.00    0.85434
2035.10    0.85266
2035.20    0.85113
2035.30    0.84928
2035.40    0.84737
2035.50    0.84564
2035.60    0.84391
2035.70    0.84211
2035.80    0.83974
2035.90    0.83774
2036.00    0.83580
2036.10    0.83397
2036.20    0.83140
2036.30    0.82919
2036.40    0.82714
2036.50    0.82491
2036.60    0.82241
2036.70    0.82010
2036.80    0.81790
2036.90    0.81569
2037.00    0.81298
2037.10    0.81039
2037.20    0.80783
2037.30    0.80550
2037.40    0.80306
2037.50    0.79992
2037.60    0.79742
2037.70    0.79491
2037.80    0.79214
2037.90    0.78917
2038.00    0.78606
2038.10    0.78341
2038.20    0.78086
2038.30    0.77753
2038.40    0.77456
2038.50    0.77160
2038.60    0.76872
2038.70    0.76591
2038.80    0.76237
2038.90    0.75915
2039.00    0.75632
2039.10    0.75298
2039.20    0.74942
2039.30    0.74603
2039.40    0.74274
2039.50    0.73969
2039.60    0.73594
2039.70    0.73191
2039.80    0.72864
2039.90    0.72557
2040.00    0.72191
2040.10    0.71824
2040.20    0.71466
2040.30    0.71148
2040.40    0.70784
2040.50    0.70363
2040.60    0.69984
2040.70    0.69674
2040.80    0.69264
2040.90    0.68912
2041.00    0.68469
2041.10    0.68086
2041.20    0.67775
2041.30    0.67347
2041.40    0.66896
2041.50    0.66533
2041.60    0.66178
2041.70    0.65764
2041.80    0.65338
2041.90    0.64950
2042.00    0.64580
2042.10    0.64217
2042.20    0.63711
2042.30    0.63327
2042.40    0.62941
2042.50    0.62519
2042.60    0.62124
2042.70    0.61648
2042.80    0.61244
2042.90    0.60904
2043.00    0.60479
2043.10    0.59994
2043.20    0.59614
2043.30    0.59191
2043.40    0.58795
2043.50    0.58324
2043.60    0.57908
2043.70    0.57494
2043.80    0.57111
2043.90    0.56617
2044.00    0.56227
2044.10    0.55850
2044.20    0.55474
2044.30    0.55038
2044.40    0.54508
2044.50    0.54117
2044.60    0.53718
2044.70    0.53312
2044.80    0.52820
2044.90    0.52411
2045.00    0.52071
2045.10    0.51655
2045.20    0.51220
2045.30    0.50732
2045.40    0.50332
2045.50    0.49969
2045.60    0.49503
2045.70    0.49063
2045.80    0.48641
2045.90    0.48273
2046.00    0.47875
2046.10    0.47381
2046.20    0.46977
2046.30    0.46610
2046.40    0.46214
2046.50    0.45750
2046.60    0.45329
2046.70    0.44965
2046.80    0.44584
2046.90    0.44205
2047.00    0.43719
2047.10    0.43337
2047.20    0.43019
2047.30    0.42597
2047.40    0.42153
2047.50    0.41762
2047.60    0.41398
2047.70    0.41050
2047.80    0.40594
2047.90    0.40176
2048.00    0.39815
2048.10    0.39479
2048.20    0.39052
2048.30    0.38660
2048.40    0.38314
2048.50    0.38026
2048.60    0.37621
2048.70    0.37214
2048.80    0.36856
2048.90    0.36519
2049.00    0.36181
2049.10    0.35810
2049.20    0.35400
2049.30    0.35086
2049.40    0.34745
2049.50    0.34363
2049.60    0.33963
2049.70    0.33658
2049.80    0.33382
2049.90    0.33002
2050.00    0.32647
2050.10    0.32316
2050.20    0.32026
2050.30    0.31728
2050.40    0.31348
2050.50    0.31037
2050.60    0.30730
2050.70    0.30427
2050.80    0.30107
2050.90    0.29775
2051.00    0.29473
2051.10    0.29189
2051.20    0.28863
2051.30    0.28545
2051.40    0.28247
2051.50    0.27961
2051.60    0.27691
2051.70    0.27382
2051.80    0.27074
2051.90    0.26837
2052.00    0.26561
2052.10    0.26272
2052.20    0.25975
2052.30    0.25722
2052.40    0.25478
2052.50    0.25199
2052.60    0.24910
2052.70    0.24632
2052.80    0.24384
2052.90    0.24135
2053.00    0.23840
2053.10    0.23583
2053.20    0.23339
2053.30    0.23131
2053.40    0.22851
2053.50    0.22593
2053.60    0.22377
2053.70    0.22149
2053.80    0.21890
2053.90    0.21662
2054.00    0.21436
2054.10    0.21224
2054.20    0.20986
2054.30    0.20754
2054.40    0.20532
2054.50    0.20347
2054.60    0.20094
2054.70    0.19856
2054.80    0.19646
2054.90    0.19450
2055.00    0.19233
2055.10    0.19036
2055.20    0.18827
2055.30    0.18630
2055.40    0.18451
2055.50    0.18233
2055.60    0.18041
2055.70    0.17846
2055.80    0.17662
2055.90    0.17480
2056.00    0.17301
2056.10    0.17087
2056.20    0.16907
2056.30    0.16737
2056.40    0.16539
2056.50    0.16363
2056.60    0.16176
2056.70    0.16020
2056.80    0.15858
2056.90    0.15678
2057.00    0.15510
2057.10    0.15348
2057.20    0.15193
2057.30    0.15035
2057.40    0.14867
2057.50    0.14709
2057.60    0.14566
2057.70    0.14418
2057.80    0.14229
2057.90    0.14088
2058.00    0.13944
2058.10    0.13803
2058.20    0.13642
2058.30    0.13487
2058.40    0.13365
2058.50    0.13214
2058.60    0.13069
2058.70    0.12929
2058.80    0.12800
2058.90    0.12677
2059.00    0.12537
2059.10    0.12395
2059.20    0.12259
2059.30    0.12160
2059.40    0.12023
2059.50    0.11882
2059.60    0.11760
2059.70    0.11641
2059.80    0.11523
2059.90    0.11398
2060.00    0.11271
2060.10    0.11150
2060.20    0.11035
2060.30    0.10914
2060.40    0.10803
2060.50    0.10698
2060.60    0.10589
2060.70    0.10472
2060.80    0.10356
2060.90    0.10256
2061.00    0.10149
2061.10    0.10053
2061.20    0.09937
2061.30    0.09840
2061.40    0.09742
2061.50    0.09638
2061.60    0.09537
2061.70    0.09427
2061.80    0.09330
2061.90    0.09237
2062.00    0.09130
2062.10    0.09039
2062.20    0.08947
2062.30    0.08857
2062.40    0.08779
2062.50    0.08683
2062.60    0.08590
2062.70    0.08523
2062.80    0.08435
2062.90    0.08339
2063.00    0.08251
2063.10    0.08164
2063.20    0.08094
2063.30    0.08001
2063.40    0.07915
2063.50    0.07827
2063.60    0.07756
2063.70    0.07676
2063.80    0.07604
2063.90    0.07521
2064.00    0.07448
2064.10    0.07388
2064.20    0.07298
2064.30    0.07228
2064.40    0.07150
2064.50    0.07087
2064.60    0.07021
2064.70    0.06946
2064.80    0.06869
2064.90    0.06814
2065.00    0.06741
2065.10    0.06666
2065.20    0.06607
2065.30    0.06534
2065.40    0.06467
2065.50    0.06397
2065.60    0.06337
2065.70    0.06278
2065.80    0.06222
2065.90    0.06158
2066.00    0.06096
2066.10    0.06041
2066.20    0.05976
2066.30    0.05928
2066.40    0.05868
2066.50    0.05808
2066.60    0.05748
2066.70    0.05699
2066.80    0.05641
2066.90    0.05582
2067.00    0.05527
2067.10    0.05469
2067.20    0.05421
2067.30    0.05363
2067.40    0.05311
2067.50    0.05262
2067.60    0.05213
2067.70    0.05152
2067.80    0.05113
2067.90    0.05069
2068.00    0.05016
2068.10    0.04975
2068.20    0.04916
2068.30    0.04873
2068.40    0.04838
2068.50    0.04786
2068.60    0.04738
2068.70    0.04687
2068.80    0.04655
2068.90    0.04603
2069.00    0.04554
2069.10    0.04509
2069.20    0.04480
2069.30    0.04429
2069.40    0.04390
2069.50    0.04347
2069.60    0.04317
2069.70    0.04268
2069.80    0.04237
2069.90    0.04187
2070.00    0.04150
2070.10    0.04114
2070.20    0.04077
2070.30    0.04035
2070.40    0.04002
2070.50    0.03959
2070.60    0.03915
2070.70    0.03887
2070.80    0.03851
2070.90    0.03815
2071.00    0.03779
2071.10    0.03751
2071.20    0.03711
2071.30    0.03674
2071.40    0.03643
2071.50    0.03609
2071.60    0.03583
2071.70    0.03546
2071.80    0.03512
2071.90    0.03485
2072.00    0.03450
2072.10    0.03422
2072.20    0.03390
2072.30    0.03360
2072.40    0.03334
2072.50    0.03290
2072.60    0.03266
2072.70    0.03237
2072.80    0.03204
2072.90    0.03182
2073.00    0.03148
2073.10    0.03131
2073.20    0.03097
2073.30    0.03068
2073.40    0.03045
2073.50    0.03020
2073.60    0.02988
2073.70    0.02961
2073.80    0.02935
2073.90    0.02913
2074.00    0.02890
2074.10    0.02861
2074.20    0.02830
2074.30    0.02808
2074.40    0.02785
2074.50    0.02760
2074.60    0.02737
2074.70    0.02707
2074.80    0.02687
2074.90    0.02667
2075.00    0.02641
2075.10    0.02620
2075.20    0.02595
2075.30    0.02584
2075.40    0.02556
2075.50    0.02531
2075.60    0.02512
2075.70    0.02495
2075.80    0.02466
2075.90    0.02445
2076.00    0.02427
2076.10    0.02404
2076.20    0.02385
2076.30    0.02367
2076.40    0.02339
2076.50    0.02326
2076.60    0.02309
2076.70    0.02281
2076.80    0.02268
2076.90    0.02245
2077.00    0.02229
2077.10    0.02218
2077.20    0.02187
2077.30    0.02173
2077.40    0.02153
2077.50    0.02142
2077.60    0.02114
2077.70    0.02106
2077.80    0.02086
2077.90    0.02069
2078.00    0.02052
2078.10    0.02031
2078.20    0.02010
2078.30    0.01997
2078.40    0.01983
2078.50    0.01971
2078.60    0.01952
2078.70    0.01935
2078.80    0.01923
2078.90    0.01895
2079.00    0.01889
2079.10    0.01874
2079.20    0.01852
2079.30    0.01845
2079.40    0.01820
2079.50    0.01810
2079.60    0.01795
2079.70    0.01778
2079.80    0.01772
2079.90    0.01757
2080.00    0.01739
2080.10    0.01724
2080.20    0.01712
2080.30    0.01695
2080.40    0.01684
2080.50    0.01671
2080.60    0.01655
2080.70    0.01644
2080.80    0.01631
2080.90    0.01622
2081.00    0.01608
2081.10    0.01588
2081.20    0.01582
2081.30    0.01570
2081.40    0.01563
2081.50    0.01540
2081.60    0.01535
2081.70    0.01520
2081.80    0.01511
2081.90    0.01497
2082.00    0.01490
2082.10    0.01473
2082.20    0.01465
2082.30    0.01447
2082.40    0.01442
2082.50    0.01430
2082.60    0.01423
2082.70    0.01406
2082.80    0.01396
2082.90    0.01382
2083.00    0.01375
2083.10    0.01364
2083.20    0.01351
2083.30    0.01344
2083.40    0.01330
2083.50    0.01320
2083.60    0.01315
2083.70    0.01301
2083.80    0.01292
2083.90    0.01287
2084.00    0.01274
2084.10    0.01263
2084.20    0.01255
2084.30    0.01241
2084.40    0.01233
2084.50    0.01234
2084.60    0.01217
2084.70    0.01206
2084.80    0.01199
2084.90    0.01196
2085.00    0.01177
2085.10    0.01179
2085.20    0.01163
2085.30    0.01157
2085.40    0.01146
2085.50    0.01139
2085.60    0.01137
2085.70    0.01121
2085.80    0.01113
2085.90    0.01102
2086.00    0.01096
2086.10    0.01087
2086.20    0.01086
2086.30    0.01074
2086.40    0.01066
2086.50    0.01061
2086.60    0.01045
2086.70    0.01040
2086.80    0.01034
2086.90    0.01028
2087.00    0.01021
2087.10    0.01014
2087.20    0.01009
2087.30    0.00999
2087.40    0.00996
2087.50    0.00986
2087.60    0.00975
2087.70    0.00968
2087.80    0.00961
2087.90    0.00956
2088.00    0.00954
2088.10    0.00941
2088.20    0.00935
2088.30    0.00926
2088.40    0.00921
2088.50    0.00919
2088.60    0.00909
2088.70    0.00905
2088.80    0.00893
2088.90    0.00893
2089.00    0.00884
2089.10    0.00875
2089.20    0.00870
2089.30    0.00866
2089.40    0.00858
2089.50    0.00851
2089.60    0.00844
2089.70    0.00845
2089.80    0.00838
2089.90    0.00830
2090.00    0.00820
2090.10    0.00823
2090.20    0.00817
2090.30    0.00809
2090.40    0.00801
2090.50    0.00798
2090.60    0.00794
2090.70    0.00791
2090.80    0.00782
2090.90    0.00773
2091.00    0.00775
2091.10    0.00765
2091.20    0.00762
2091.30    0.00755
2091.40    0.00748
2091.50    0.00746
2091.60    0.00745
2091.70    0.00738
2091.80    0.00733
2091.90    0.00722
2092.00    0.00722
2092.10    0.00716
2092.20    0.00709
2092.30    0.00707
2092.40    0.00702
2092.50    0.00695
2092.60    0.00688
2092.70    0.00685
2092.80    0.00684
2092.90    0.00674
2093.00    0.00677
2093.10    0.00673
2093.20    0.00660
2093.30    0.00655
2093.40    0.00653
2093.50    0.00650
2093.60    0.00646
2093.70    0.00643
2093.80    0.00640
2093.90    0.00635
2094.00    0.00629
2094.10    0.00627
2094.20    0.00628
2094.30    0.00623
2094.40    0.00612
2094.50    0.00605
2094.60    0.00608
2094.70    0.00606
2094.80    0.00603
2094.90    0.00597
2095.00    0.00593
2095.10    0.00581
2095.20    0.00587
2095.30    0.00581
2095.40    0.00580
2095.50    0.00573
2095.60    0.00567
2095.70    0.00567
2095.80    0.00565
2095.90    0.00563
2096.00    0.00554
2096.10    0.00553
2096.20    0.00546
2096.30    0.00544
2096.40    0.00539
2096.50    0.00537
2096.60    0.00535
2096.70    0.00533
2096.80    0.00526
2096.90    0.00516
2097.00    0.00521
2097.10    0.00514
2097.20    0.00515
2097.30    0.00507
2097.40    0.00509
2097.50    0.00502
2097.60    0.00501
2097.70    0.00499
2097.80    0.00494
2097.90    0.00491
2098.00    0.00487
2098.10    0.00485
2098.20    0.00479
2098.30    0.00479
2098.40    0.00477
2098.50    0.00476
2098.60    0.00474
2098.70    0.00473
2098.80    0.00462
2098.90    0.00464
2099.00    0.00461
2099.10    0.00455
2099.20    0.00455
2099.30    0.00451
2099.40    0.00445
2099.50    0.00445
2099.60    0.00440
2099.70    0.00443
2099.80    0.00433
2099.90    0.00431
2100.00    0.00429
2110.00    0.00000
2120.00    0.00000
