# Filter ID: ED278 2
# Gemini Filter Name: Kprime_G1104
# 42mm diameter Infrasil 6mm thickness
# Central Wavelength: 2.120 um
# Note: Measurements taken at room temp and then calculated to 
# 70K using correlation measurements from Cold test witness
# Created: 2012aug16
# Author: R. Carrasco
# Lambda(nm) Transmission
1720.00    0.00000
1730.00    0.00000
1740.00    0.00003
1740.25    0.00019
1740.50    0.00002
1740.75    0.00009
1741.00    0.00012
1741.25    0.00004
1741.50    0.00005
1741.75    0.00006
1742.00    0.00020
1742.25    0.00011
1742.50    0.00004
1742.75    0.00001
1743.00    0.00005
1743.25    0.00003
1743.50    0.00002
1743.75    0.00005
1744.00    0.00003
1744.25    0.00014
1744.50    0.00008
1744.75    0.00003
1745.00    0.00006
1745.25    0.00000
1745.50    0.00006
1745.75    0.00003
1746.00    0.00011
1746.25    0.00015
1746.50    0.00000
1746.75    0.00008
1747.00    0.00004
1747.25    0.00008
1747.50    0.00022
1747.75    0.00007
1748.00    0.00009
1748.25    0.00001
1748.50    0.00004
1748.75    0.00006
1749.00    0.00005
1749.25    0.00006
1749.50    0.00011
1749.75    0.00003
1750.00    0.00010
1750.25    0.00012
1750.50    0.00004
1750.75    0.00026
1751.00    0.00004
1751.25    0.00012
1751.50    0.00001
1751.75    0.00019
1752.00    0.00005
1752.25    0.00003
1752.50    0.00006
1752.75    0.00017
1753.00    0.00005
1753.25    0.00016
1753.50    0.00005
1753.75    0.00002
1754.00    0.00014
1754.25    0.00012
1754.50    0.00004
1754.75    0.00005
1755.00    0.00006
1755.25    0.00003
1755.50    0.00017
1755.75    0.00001
1756.00    0.00004
1756.25    0.00010
1756.50    0.00015
1756.75    0.00007
1757.00    0.00002
1757.25    0.00005
1757.50    0.00002
1757.75    0.00005
1758.00    0.00002
1758.25    0.00000
1758.50    0.00004
1758.75    0.00008
1759.00    0.00015
1759.25    0.00004
1759.50    0.00004
1759.75    0.00010
1760.00    0.00003
1760.25    0.00010
1760.50    0.00000
1760.75    0.00001
1761.00    0.00004
1761.25    0.00002
1761.50    0.00002
1761.75    0.00005
1762.00    0.00002
1762.25    0.00011
1762.50    0.00008
1762.75    0.00010
1763.00    0.00006
1763.25    0.00007
1763.50    0.00018
1763.75    0.00000
1764.00    0.00005
1764.25    0.00007
1764.50    0.00007
1764.75    0.00003
1765.00    0.00005
1765.25    0.00008
1765.50    0.00007
1765.75    0.00003
1766.00    0.00008
1766.25    0.00012
1766.50    0.00009
1766.75    0.00000
1767.00    0.00003
1767.25    0.00002
1767.50    0.00003
1767.75    0.00008
1768.00    0.00004
1768.25    0.00007
1768.50    0.00007
1768.75    0.00014
1769.00    0.00013
1769.25    0.00000
1769.50    0.00009
1769.75    0.00003
1770.00    0.00003
1770.25    0.00006
1770.50    0.00009
1770.75    0.00017
1771.00    0.00007
1771.25    0.00006
1771.50    0.00008
1771.75    0.00003
1772.00    0.00006
1772.25    0.00002
1772.50    0.00008
1772.75    0.00001
1773.00    0.00013
1773.25    0.00007
1773.50    0.00006
1773.75    0.00008
1774.00    0.00004
1774.25    0.00001
1774.50    0.00003
1774.75    0.00003
1775.00    0.00002
1775.25    0.00008
1775.50    0.00001
1775.75    0.00008
1776.00    0.00010
1776.25    0.00003
1776.50    0.00002
1776.75    0.00005
1777.00    0.00001
1777.25    0.00000
1777.50    0.00005
1777.75    0.00012
1778.00    0.00009
1778.25    0.00007
1778.50    0.00007
1778.75    0.00007
1779.00    0.00007
1779.25    0.00007
1779.50    0.00004
1779.75    0.00007
1780.00    0.00003
1780.25    0.00007
1780.50    0.00004
1780.75    0.00002
1781.00    0.00005
1781.25    0.00001
1781.50    0.00008
1781.75    0.00004
1782.00    0.00011
1782.25    0.00004
1782.50    0.00001
1782.75    0.00011
1783.00    0.00009
1783.25    0.00004
1783.50    0.00004
1783.75    0.00004
1784.00    0.00006
1784.25    0.00000
1784.50    0.00005
1784.75    0.00004
1785.00    0.00009
1785.25    0.00003
1785.50    0.00002
1785.75    0.00001
1786.00    0.00001
1786.25    0.00007
1786.50    0.00004
1786.75    0.00007
1787.00    0.00008
1787.25    0.00013
1787.50    0.00008
1787.75    0.00003
1788.00    0.00005
1788.25    0.00006
1788.50    0.00011
1788.75    0.00006
1789.00    0.00010
1789.25    0.00004
1789.50    0.00007
1789.75    0.00001
1790.00    0.00003
1790.25    0.00004
1790.50    0.00001
1790.75    0.00008
1791.00    0.00004
1791.25    0.00004
1791.50    0.00001
1791.75    0.00003
1792.00    0.00003
1792.25    0.00001
1792.50    0.00002
1792.75    0.00001
1793.00    0.00004
1793.25    0.00012
1793.50    0.00000
1793.75    0.00003
1794.00    0.00002
1794.25    0.00007
1794.50    0.00000
1794.75    0.00009
1795.00    0.00002
1795.25    0.00003
1795.50    0.00002
1795.75    0.00006
1796.00    0.00006
1796.25    0.00005
1796.50    0.00001
1796.75    0.00004
1797.00    0.00006
1797.25    0.00010
1797.50    0.00002
1797.75    0.00006
1798.00    0.00007
1798.25    0.00005
1798.50    0.00004
1798.75    0.00007
1799.00    0.00002
1799.25    0.00001
1799.50    0.00004
1799.75    0.00003
1800.00    0.00000
1800.25    0.00007
1800.50    0.00009
1800.75    0.00012
1801.00    0.00010
1801.25    0.00003
1801.50    0.00008
1801.75    0.00010
1802.00    0.00001
1802.25    0.00004
1802.50    0.00008
1802.75    0.00003
1803.00    0.00007
1803.25    0.00001
1803.50    0.00011
1803.75    0.00003
1804.00    0.00003
1804.25    0.00005
1804.50    0.00023
1804.75    0.00001
1805.00    0.00000
1805.25    0.00004
1805.50    0.00010
1805.75    0.00007
1806.00    0.00011
1806.25    0.00003
1806.50    0.00018
1806.75    0.00005
1807.00    0.00002
1807.25    0.00006
1807.50    0.00007
1807.75    0.00006
1808.00    0.00015
1808.25    0.00009
1808.50    0.00000
1808.75    0.00005
1809.00    0.00002
1809.25    0.00006
1809.50    0.00008
1809.75    0.00008
1810.00    0.00005
1810.25    0.00006
1810.50    0.00004
1810.75    0.00010
1811.00    0.00004
1811.25    0.00010
1811.50    0.00012
1811.75    0.00002
1812.00    0.00009
1812.25    0.00007
1812.50    0.00002
1812.75    0.00001
1813.00    0.00009
1813.25    0.00008
1813.50    0.00009
1813.75    0.00001
1814.00    0.00018
1814.25    0.00010
1814.50    0.00001
1814.75    0.00007
1815.00    0.00012
1815.25    0.00016
1815.50    0.00000
1815.75    0.00006
1816.00    0.00013
1816.25    0.00008
1816.50    0.00002
1816.75    0.00007
1817.00    0.00003
1817.25    0.00007
1817.50    0.00013
1817.75    0.00005
1818.00    0.00012
1818.25    0.00024
1818.50    0.00003
1818.75    0.00003
1819.00    0.00009
1819.25    0.00006
1819.50    0.00004
1819.75    0.00006
1820.00    0.00007
1820.25    0.00000
1820.50    0.00006
1820.75    0.00007
1821.00    0.00003
1821.25    0.00006
1821.50    0.00008
1821.75    0.00012
1822.00    0.00018
1822.25    0.00003
1822.50    0.00012
1822.75    0.00007
1823.00    0.00012
1823.25    0.00005
1823.50    0.00011
1823.75    0.00004
1824.00    0.00012
1824.25    0.00006
1824.50    0.00011
1824.75    0.00006
1825.00    0.00009
1825.25    0.00004
1825.50    0.00009
1825.75    0.00003
1826.00    0.00016
1826.25    0.00010
1826.50    0.00002
1826.75    0.00011
1827.00    0.00006
1827.25    0.00004
1827.50    0.00020
1827.75    0.00018
1828.00    0.00006
1828.25    0.00006
1828.50    0.00002
1828.75    0.00006
1829.00    0.00009
1829.25    0.00006
1829.50    0.00014
1829.75    0.00000
1830.00    0.00004
1830.25    0.00005
1830.50    0.00014
1830.75    0.00003
1831.00    0.00007
1831.25    0.00006
1831.50    0.00014
1831.75    0.00007
1832.00    0.00001
1832.25    0.00006
1832.50    0.00004
1832.75    0.00004
1833.00    0.00009
1833.25    0.00009
1833.50    0.00003
1833.75    0.00004
1834.00    0.00007
1834.25    0.00001
1834.50    0.00000
1834.75    0.00018
1835.00    0.00010
1835.25    0.00012
1835.50    0.00005
1835.75    0.00003
1836.00    0.00009
1836.25    0.00011
1836.50    0.00010
1836.75    0.00003
1837.00    0.00002
1837.25    0.00009
1837.50    0.00008
1837.75    0.00009
1838.00    0.00011
1838.25    0.00008
1838.50    0.00000
1838.75    0.00009
1839.00    0.00000
1839.25    0.00001
1839.50    0.00017
1839.75    0.00007
1840.00    0.00017
1840.25    0.00002
1840.50    0.00012
1840.75    0.00009
1841.00    0.00004
1841.25    0.00003
1841.50    0.00010
1841.75    0.00004
1842.00    0.00008
1842.25    0.00010
1842.50    0.00002
1842.75    0.00006
1843.00    0.00000
1843.25    0.00002
1843.50    0.00003
1843.75    0.00003
1844.00    0.00003
1844.25    0.00008
1844.50    0.00003
1844.75    0.00004
1845.00    0.00004
1845.25    0.00009
1845.50    0.00009
1845.75    0.00010
1846.00    0.00004
1846.25    0.00000
1846.50    0.00003
1846.75    0.00003
1847.00    0.00007
1847.25    0.00009
1847.50    0.00004
1847.75    0.00004
1848.00    0.00001
1848.25    0.00003
1848.50    0.00006
1848.75    0.00008
1849.00    0.00001
1849.25    0.00007
1849.50    0.00015
1849.75    0.00007
1850.00    0.00008
1850.25    0.00009
1850.50    0.00013
1850.75    0.00004
1851.00    0.00000
1851.25    0.00018
1851.50    0.00005
1851.75    0.00002
1852.00    0.00011
1852.25    0.00005
1852.50    0.00012
1852.75    0.00008
1853.00    0.00007
1853.25    0.00016
1853.50    0.00005
1853.75    0.00007
1854.00    0.00011
1854.25    0.00012
1854.50    0.00003
1854.75    0.00008
1855.00    0.00011
1855.25    0.00009
1855.50    0.00009
1855.75    0.00007
1856.00    0.00006
1856.25    0.00020
1856.50    0.00011
1856.75    0.00008
1857.00    0.00015
1857.25    0.00008
1857.50    0.00009
1857.75    0.00007
1858.00    0.00007
1858.25    0.00007
1858.50    0.00012
1858.75    0.00008
1859.00    0.00016
1859.25    0.00013
1859.50    0.00012
1859.75    0.00006
1860.00    0.00005
1860.25    0.00006
1860.50    0.00013
1860.75    0.00010
1861.00    0.00007
1861.25    0.00020
1861.50    0.00001
1861.75    0.00001
1862.00    0.00011
1862.25    0.00017
1862.50    0.00001
1862.75    0.00020
1863.00    0.00012
1863.25    0.00012
1863.50    0.00008
1863.75    0.00000
1864.00    0.00013
1864.25    0.00012
1864.50    0.00004
1864.75    0.00001
1865.00    0.00019
1865.25    0.00011
1865.50    0.00015
1865.75    0.00013
1866.00    0.00012
1866.25    0.00009
1866.50    0.00018
1866.75    0.00008
1867.00    0.00009
1867.25    0.00009
1867.50    0.00007
1867.75    0.00013
1868.00    0.00016
1868.25    0.00005
1868.50    0.00011
1868.75    0.00009
1869.00    0.00017
1869.25    0.00008
1869.50    0.00009
1869.75    0.00023
1870.00    0.00022
1870.25    0.00005
1870.50    0.00015
1870.75    0.00024
1871.00    0.00023
1871.25    0.00029
1871.50    0.00006
1871.75    0.00011
1872.00    0.00021
1872.25    0.00021
1872.50    0.00013
1872.75    0.00016
1873.00    0.00019
1873.25    0.00023
1873.50    0.00035
1873.75    0.00007
1874.00    0.00020
1874.25    0.00010
1874.50    0.00014
1874.75    0.00017
1875.00    0.00022
1875.25    0.00020
1875.50    0.00022
1875.75    0.00017
1876.00    0.00011
1876.25    0.00020
1876.50    0.00018
1876.75    0.00026
1877.00    0.00022
1877.25    0.00034
1877.50    0.00025
1877.75    0.00022
1878.00    0.00023
1878.25    0.00023
1878.50    0.00021
1878.75    0.00033
1879.00    0.00031
1879.25    0.00031
1879.50    0.00030
1879.75    0.00027
1880.00    0.00023
1880.25    0.00023
1880.50    0.00035
1880.75    0.00035
1881.00    0.00029
1881.25    0.00031
1881.50    0.00037
1881.75    0.00041
1882.00    0.00042
1882.25    0.00029
1882.50    0.00031
1882.75    0.00057
1883.00    0.00040
1883.25    0.00056
1883.50    0.00048
1883.75    0.00045
1884.00    0.00056
1884.25    0.00056
1884.50    0.00048
1884.75    0.00057
1885.00    0.00054
1885.25    0.00056
1885.50    0.00055
1885.75    0.00056
1886.00    0.00063
1886.25    0.00052
1886.50    0.00062
1886.75    0.00063
1887.00    0.00067
1887.25    0.00070
1887.50    0.00073
1887.75    0.00066
1888.00    0.00075
1888.25    0.00075
1888.50    0.00084
1888.75    0.00080
1889.00    0.00081
1889.25    0.00084
1889.50    0.00094
1889.75    0.00092
1890.00    0.00095
1890.25    0.00090
1890.50    0.00100
1890.75    0.00111
1891.00    0.00099
1891.25    0.00100
1891.50    0.00108
1891.75    0.00114
1892.00    0.00115
1892.25    0.00124
1892.50    0.00131
1892.75    0.00122
1893.00    0.00131
1893.25    0.00130
1893.50    0.00142
1893.75    0.00135
1894.00    0.00143
1894.25    0.00147
1894.50    0.00145
1894.75    0.00151
1895.00    0.00149
1895.25    0.00163
1895.50    0.00166
1895.75    0.00169
1896.00    0.00175
1896.25    0.00171
1896.50    0.00181
1896.75    0.00191
1897.00    0.00188
1897.25    0.00188
1897.50    0.00189
1897.75    0.00205
1898.00    0.00210
1898.25    0.00219
1898.50    0.00215
1898.75    0.00224
1899.00    0.00227
1899.25    0.00241
1899.50    0.00247
1899.75    0.00249
1900.00    0.00257
1900.25    0.00260
1900.50    0.00279
1900.75    0.00271
1901.00    0.00277
1901.25    0.00286
1901.50    0.00294
1901.75    0.00290
1902.00    0.00296
1902.25    0.00309
1902.50    0.00322
1902.75    0.00325
1903.00    0.00328
1903.25    0.00337
1903.50    0.00345
1903.75    0.00348
1904.00    0.00365
1904.25    0.00371
1904.50    0.00383
1904.75    0.00376
1905.00    0.00396
1905.25    0.00409
1905.50    0.00418
1905.75    0.00422
1906.00    0.00437
1906.25    0.00451
1906.50    0.00472
1906.75    0.00466
1907.00    0.00470
1907.25    0.00485
1907.50    0.00498
1907.75    0.00507
1908.00    0.00517
1908.25    0.00540
1908.50    0.00538
1908.75    0.00567
1909.00    0.00570
1909.25    0.00584
1909.50    0.00597
1909.75    0.00613
1910.00    0.00627
1910.25    0.00642
1910.50    0.00660
1910.75    0.00675
1911.00    0.00694
1911.25    0.00693
1911.50    0.00720
1911.75    0.00739
1912.00    0.00764
1912.25    0.00792
1912.50    0.00803
1912.75    0.00825
1913.00    0.00862
1913.25    0.00852
1913.50    0.00885
1913.75    0.00939
1914.00    0.00950
1914.25    0.00971
1914.50    0.01001
1914.75    0.01016
1915.00    0.01046
1915.25    0.01090
1915.50    0.01114
1915.75    0.01155
1916.00    0.01170
1916.25    0.01216
1916.50    0.01247
1916.75    0.01285
1917.00    0.01328
1917.25    0.01352
1917.50    0.01392
1917.75    0.01449
1918.00    0.01468
1918.25    0.01537
1918.50    0.01580
1918.75    0.01627
1919.00    0.01680
1919.25    0.01735
1919.50    0.01800
1919.75    0.01856
1920.00    0.01948
1920.25    0.01976
1920.50    0.02064
1920.75    0.02111
1921.00    0.02220
1921.25    0.02288
1921.50    0.02360
1921.75    0.02448
1922.00    0.02516
1922.25    0.02623
1922.50    0.02702
1922.75    0.02805
1923.00    0.02922
1923.25    0.02998
1923.50    0.03123
1923.75    0.03237
1924.00    0.03360
1924.25    0.03509
1924.50    0.03617
1924.75    0.03768
1925.00    0.03902
1925.25    0.04065
1925.50    0.04220
1925.75    0.04383
1926.00    0.04570
1926.25    0.04725
1926.50    0.04935
1926.75    0.05118
1927.00    0.05350
1927.25    0.05579
1927.50    0.05803
1927.75    0.06081
1928.00    0.06295
1928.25    0.06605
1928.50    0.06871
1928.75    0.07166
1929.00    0.07502
1929.25    0.07777
1929.50    0.08162
1929.75    0.08479
1930.00    0.08875
1930.25    0.09263
1930.50    0.09659
1930.75    0.10086
1931.00    0.10462
1931.25    0.10993
1931.50    0.11434
1931.75    0.11927
1932.00    0.12476
1932.25    0.12984
1932.50    0.13622
1932.75    0.14123
1933.00    0.14813
1933.25    0.15454
1933.50    0.16093
1933.75    0.16864
1934.00    0.17474
1934.25    0.18310
1934.50    0.18985
1934.75    0.19854
1935.00    0.20745
1935.25    0.21578
1935.50    0.22562
1935.75    0.23318
1936.00    0.24339
1936.25    0.25255
1936.50    0.26326
1936.75    0.27432
1937.00    0.28423
1937.25    0.29625
1937.50    0.30612
1937.75    0.31849
1938.00    0.33021
1938.25    0.34190
1938.50    0.35576
1938.75    0.36710
1939.00    0.38055
1939.25    0.39107
1939.50    0.40575
1939.75    0.41979
1940.00    0.43217
1940.25    0.44672
1940.50    0.45874
1940.75    0.47350
1941.00    0.48528
1941.25    0.49958
1941.50    0.51439
1941.75    0.52622
1942.00    0.54031
1942.25    0.55193
1942.50    0.56644
1942.75    0.57852
1943.00    0.59167
1943.25    0.60620
1943.50    0.61708
1943.75    0.63096
1944.00    0.64182
1944.25    0.65442
1944.50    0.66662
1944.75    0.67779
1945.00    0.69047
1945.25    0.69986
1945.50    0.71220
1945.75    0.72184
1946.00    0.73181
1946.25    0.74240
1946.50    0.75124
1946.75    0.76194
1947.00    0.76964
1947.25    0.77981
1947.50    0.78783
1947.75    0.79560
1948.00    0.80433
1948.25    0.81137
1948.50    0.81977
1948.75    0.82633
1949.00    0.83377
1949.25    0.84055
1949.50    0.84676
1949.75    0.85356
1950.00    0.85851
1950.25    0.86527
1950.50    0.87034
1950.75    0.87582
1951.00    0.88129
1951.25    0.88572
1951.50    0.89106
1951.75    0.89470
1952.00    0.89972
1952.25    0.90370
1952.50    0.90748
1952.75    0.91170
1953.00    0.91477
1953.25    0.91846
1953.50    0.92166
1953.75    0.92488
1954.00    0.92818
1954.25    0.93059
1954.50    0.93351
1954.75    0.93573
1955.00    0.93812
1955.25    0.94032
1955.50    0.94233
1955.75    0.94465
1956.00    0.94620
1956.25    0.94769
1956.50    0.94897
1956.75    0.95031
1957.00    0.95160
1957.25    0.95280
1957.50    0.95370
1957.75    0.95470
1958.00    0.95535
1958.25    0.95584
1958.50    0.95651
1958.75    0.95676
1959.00    0.95726
1959.25    0.95752
1959.50    0.95775
1959.75    0.95750
1960.00    0.95767
1960.25    0.95744
1960.50    0.95713
1960.75    0.95691
1961.00    0.95684
1961.25    0.95616
1961.50    0.95559
1961.75    0.95514
1962.00    0.95473
1962.25    0.95389
1962.50    0.95334
1962.75    0.95240
1963.00    0.95159
1963.25    0.95112
1963.50    0.95016
1963.75    0.94936
1964.00    0.94829
1964.25    0.94750
1964.50    0.94654
1964.75    0.94558
1965.00    0.94461
1965.25    0.94366
1965.50    0.94286
1965.75    0.94164
1966.00    0.94085
1966.25    0.94003
1966.50    0.93893
1966.75    0.93797
1967.00    0.93720
1967.25    0.93633
1967.50    0.93537
1967.75    0.93446
1968.00    0.93350
1968.25    0.93279
1968.50    0.93211
1968.75    0.93115
1969.00    0.93036
1969.25    0.92966
1969.50    0.92918
1969.75    0.92844
1970.00    0.92789
1970.25    0.92739
1970.50    0.92678
1970.75    0.92660
1971.00    0.92583
1971.25    0.92550
1971.50    0.92521
1971.75    0.92479
1972.00    0.92464
1972.25    0.92443
1972.50    0.92402
1972.75    0.92386
1973.00    0.92382
1973.25    0.92371
1973.50    0.92357
1973.75    0.92343
1974.00    0.92364
1974.25    0.92346
1974.50    0.92370
1974.75    0.92392
1975.00    0.92390
1975.25    0.92422
1975.50    0.92429
1975.75    0.92453
1976.00    0.92507
1976.25    0.92529
1976.50    0.92572
1976.75    0.92597
1977.00    0.92648
1977.25    0.92666
1977.50    0.92713
1977.75    0.92757
1978.00    0.92815
1978.25    0.92887
1978.50    0.92899
1978.75    0.92980
1979.00    0.93025
1979.25    0.93080
1979.50    0.93139
1979.75    0.93183
1980.00    0.93273
1980.25    0.93317
1980.50    0.93394
1980.75    0.93453
1981.00    0.93529
1981.25    0.93602
1981.50    0.93654
1981.75    0.93711
1982.00    0.93764
1982.25    0.93853
1982.50    0.93902
1982.75    0.93994
1983.00    0.94043
1983.25    0.94099
1983.50    0.94194
1983.75    0.94226
1984.00    0.94277
1984.25    0.94349
1984.50    0.94425
1984.75    0.94470
1985.00    0.94533
1985.25    0.94597
1985.50    0.94657
1985.75    0.94718
1986.00    0.94766
1986.25    0.94818
1986.50    0.94887
1986.75    0.94946
1987.00    0.94983
1987.25    0.95030
1987.50    0.95065
1987.75    0.95136
1988.00    0.95175
1988.25    0.95225
1988.50    0.95280
1988.75    0.95299
1989.00    0.95343
1989.25    0.95403
1989.50    0.95427
1989.75    0.95469
1990.00    0.95503
1990.25    0.95534
1990.50    0.95562
1990.75    0.95598
1991.00    0.95636
1991.25    0.95676
1991.50    0.95699
1991.75    0.95732
1992.00    0.95769
1992.25    0.95770
1992.50    0.95814
1992.75    0.95824
1993.00    0.95842
1993.25    0.95889
1993.50    0.95887
1993.75    0.95926
1994.00    0.95946
1994.25    0.95962
1994.50    0.95970
1994.75    0.95993
1995.00    0.96012
1995.25    0.96022
1995.50    0.96073
1995.75    0.96069
1996.00    0.96077
1996.25    0.96089
1996.50    0.96084
1996.75    0.96131
1997.00    0.96131
1997.25    0.96158
1997.50    0.96158
1997.75    0.96172
1998.00    0.96200
1998.25    0.96218
1998.50    0.96211
1998.75    0.96237
1999.00    0.96217
1999.25    0.96237
1999.50    0.96252
1999.75    0.96266
2000.00    0.96256
2000.25    0.96285
2000.50    0.96284
2000.75    0.96297
2001.00    0.96307
2001.25    0.96310
2001.50    0.96344
2001.75    0.96340
2002.00    0.96356
2002.25    0.96356
2002.50    0.96374
2002.75    0.96375
2003.00    0.96388
2003.25    0.96396
2003.50    0.96404
2003.75    0.96427
2004.00    0.96430
2004.25    0.96439
2004.50    0.96429
2004.75    0.96440
2005.00    0.96455
2005.25    0.96460
2005.50    0.96458
2005.75    0.96459
2006.00    0.96482
2006.25    0.96482
2006.50    0.96494
2006.75    0.96494
2007.00    0.96502
2007.25    0.96518
2007.50    0.96512
2007.75    0.96526
2008.00    0.96534
2008.25    0.96531
2008.50    0.96533
2008.75    0.96550
2009.00    0.96555
2009.25    0.96548
2009.50    0.96557
2009.75    0.96577
2010.00    0.96570
2010.25    0.96576
2010.50    0.96574
2010.75    0.96563
2011.00    0.96585
2011.25    0.96588
2011.50    0.96587
2011.75    0.96575
2012.00    0.96578
2012.25    0.96557
2012.50    0.96574
2012.75    0.96582
2013.00    0.96559
2013.25    0.96578
2013.50    0.96558
2013.75    0.96586
2014.00    0.96564
2014.25    0.96560
2014.50    0.96546
2014.75    0.96553
2015.00    0.96536
2015.25    0.96542
2015.50    0.96533
2015.75    0.96531
2016.00    0.96527
2016.25    0.96518
2016.50    0.96508
2016.75    0.96497
2017.00    0.96497
2017.25    0.96482
2017.50    0.96479
2017.75    0.96459
2018.00    0.96471
2018.25    0.96439
2018.50    0.96420
2018.75    0.96415
2019.00    0.96395
2019.25    0.96393
2019.50    0.96350
2019.75    0.96362
2020.00    0.96361
2020.25    0.96327
2020.50    0.96310
2020.75    0.96296
2021.00    0.96271
2021.25    0.96273
2021.50    0.96219
2021.75    0.96215
2022.00    0.96194
2022.25    0.96169
2022.50    0.96149
2022.75    0.96124
2023.00    0.96105
2023.25    0.96076
2023.50    0.96067
2023.75    0.96031
2024.00    0.96017
2024.25    0.95993
2024.50    0.95961
2024.75    0.95936
2025.00    0.95901
2025.25    0.95879
2025.50    0.95850
2025.75    0.95813
2026.00    0.95780
2026.25    0.95762
2026.50    0.95716
2026.75    0.95682
2027.00    0.95661
2027.25    0.95626
2027.50    0.95571
2027.75    0.95541
2028.00    0.95527
2028.25    0.95467
2028.50    0.95440
2028.75    0.95416
2029.00    0.95363
2029.25    0.95316
2029.50    0.95282
2029.75    0.95238
2030.00    0.95212
2030.25    0.95159
2030.50    0.95112
2030.75    0.95079
2031.00    0.95029
2031.25    0.94987
2031.50    0.94945
2031.75    0.94885
2032.00    0.94836
2032.25    0.94797
2032.50    0.94778
2032.75    0.94708
2033.00    0.94678
2033.25    0.94608
2033.50    0.94568
2033.75    0.94537
2034.00    0.94441
2034.25    0.94425
2034.50    0.94351
2034.75    0.94302
2035.00    0.94275
2035.25    0.94201
2035.50    0.94161
2035.75    0.94103
2036.00    0.94082
2036.25    0.93999
2036.50    0.93952
2036.75    0.93903
2037.00    0.93849
2037.25    0.93799
2037.50    0.93737
2037.75    0.93685
2038.00    0.93618
2038.25    0.93567
2038.50    0.93514
2038.75    0.93468
2039.00    0.93385
2039.25    0.93379
2039.50    0.93292
2039.75    0.93248
2040.00    0.93194
2040.25    0.93167
2040.50    0.93094
2040.75    0.93053
2041.00    0.92995
2041.25    0.92974
2041.50    0.92907
2041.75    0.92852
2042.00    0.92810
2042.25    0.92768
2042.50    0.92730
2042.75    0.92693
2043.00    0.92638
2043.25    0.92601
2043.50    0.92556
2043.75    0.92496
2044.00    0.92469
2044.25    0.92428
2044.50    0.92388
2044.75    0.92351
2045.00    0.92322
2045.25    0.92282
2045.50    0.92267
2045.75    0.92228
2046.00    0.92193
2046.25    0.92169
2046.50    0.92143
2046.75    0.92116
2047.00    0.92088
2047.25    0.92067
2047.50    0.92051
2047.75    0.92029
2048.00    0.92008
2048.25    0.92000
2048.50    0.91970
2048.75    0.91962
2049.00    0.91948
2049.25    0.91958
2049.50    0.91945
2049.75    0.91928
2050.00    0.91926
2050.25    0.91926
2050.50    0.91918
2050.75    0.91910
2051.00    0.91926
2051.25    0.91929
2051.50    0.91935
2051.75    0.91956
2052.00    0.91967
2052.25    0.91988
2052.50    0.91999
2052.75    0.92011
2053.00    0.92026
2053.25    0.92037
2053.50    0.92081
2053.75    0.92080
2054.00    0.92123
2054.25    0.92156
2054.50    0.92171
2054.75    0.92219
2055.00    0.92246
2055.25    0.92291
2055.50    0.92336
2055.75    0.92366
2056.00    0.92405
2056.25    0.92433
2056.50    0.92493
2056.75    0.92530
2057.00    0.92572
2057.25    0.92625
2057.50    0.92682
2057.75    0.92737
2058.00    0.92784
2058.25    0.92844
2058.50    0.92896
2058.75    0.92937
2059.00    0.93018
2059.25    0.93066
2059.50    0.93158
2059.75    0.93203
2060.00    0.93257
2060.25    0.93321
2060.50    0.93361
2060.75    0.93437
2061.00    0.93498
2061.25    0.93577
2061.50    0.93650
2061.75    0.93717
2062.00    0.93784
2062.25    0.93848
2062.50    0.93911
2062.75    0.93974
2063.00    0.94044
2063.25    0.94105
2063.50    0.94194
2063.75    0.94226
2064.00    0.94318
2064.25    0.94374
2064.50    0.94492
2064.75    0.94509
2065.00    0.94606
2065.25    0.94656
2065.50    0.94749
2065.75    0.94816
2066.00    0.94890
2066.25    0.94946
2066.50    0.95047
2066.75    0.95110
2067.00    0.95151
2067.25    0.95224
2067.50    0.95315
2067.75    0.95353
2068.00    0.95434
2068.25    0.95481
2068.50    0.95571
2068.75    0.95621
2069.00    0.95693
2069.25    0.95742
2069.50    0.95807
2069.75    0.95871
2070.00    0.95939
2070.25    0.95981
2070.50    0.96048
2070.75    0.96056
2071.00    0.96136
2071.25    0.96187
2071.50    0.96255
2071.75    0.96276
2072.00    0.96311
2072.25    0.96374
2072.50    0.96393
2072.75    0.96454
2073.00    0.96510
2073.25    0.96536
2073.50    0.96570
2073.75    0.96644
2074.00    0.96654
2074.25    0.96686
2074.50    0.96731
2074.75    0.96740
2075.00    0.96784
2075.25    0.96821
2075.50    0.96841
2075.75    0.96865
2076.00    0.96897
2076.25    0.96915
2076.50    0.96933
2076.75    0.96986
2077.00    0.96993
2077.25    0.97025
2077.50    0.97036
2077.75    0.97053
2078.00    0.97065
2078.25    0.97084
2078.50    0.97088
2078.75    0.97115
2079.00    0.97120
2079.25    0.97123
2079.50    0.97129
2079.75    0.97161
2080.00    0.97163
2080.25    0.97169
2080.50    0.97143
2080.75    0.97164
2081.00    0.97180
2081.25    0.97176
2081.50    0.97181
2081.75    0.97175
2082.00    0.97197
2082.25    0.97179
2082.50    0.97165
2082.75    0.97174
2083.00    0.97185
2083.25    0.97176
2083.50    0.97163
2083.75    0.97168
2084.00    0.97154
2084.25    0.97164
2084.50    0.97152
2084.75    0.97136
2085.00    0.97122
2085.25    0.97130
2085.50    0.97127
2085.75    0.97109
2086.00    0.97107
2086.25    0.97093
2086.50    0.97107
2086.75    0.97074
2087.00    0.97053
2087.25    0.97071
2087.50    0.97053
2087.75    0.97040
2088.00    0.97051
2088.25    0.97031
2088.50    0.97019
2088.75    0.96983
2089.00    0.97011
2089.25    0.96993
2089.50    0.97001
2089.75    0.96954
2090.00    0.96943
2090.25    0.96956
2090.50    0.96929
2090.75    0.96925
2091.00    0.96911
2091.25    0.96898
2091.50    0.96872
2091.75    0.96883
2092.00    0.96882
2092.25    0.96864
2092.50    0.96870
2092.75    0.96843
2093.00    0.96830
2093.25    0.96806
2093.50    0.96812
2093.75    0.96798
2094.00    0.96802
2094.25    0.96774
2094.50    0.96774
2094.75    0.96758
2095.00    0.96749
2095.25    0.96726
2095.50    0.96709
2095.75    0.96705
2096.00    0.96704
2096.25    0.96674
2096.50    0.96684
2096.75    0.96654
2097.00    0.96632
2097.25    0.96646
2097.50    0.96611
2097.75    0.96596
2098.00    0.96602
2098.25    0.96569
2098.50    0.96552
2098.75    0.96547
2099.00    0.96522
2099.25    0.96515
2099.50    0.96496
2099.75    0.96476
2100.00    0.96459
2100.25    0.96460
2100.50    0.96416
2100.75    0.96406
2101.00    0.96422
2101.25    0.96375
2101.50    0.96339
2101.75    0.96311
2102.00    0.96307
2102.25    0.96282
2102.50    0.96253
2102.75    0.96219
2103.00    0.96209
2103.25    0.96190
2103.50    0.96174
2103.75    0.96124
2104.00    0.96131
2104.25    0.96111
2104.50    0.96096
2104.75    0.96053
2105.00    0.96006
2105.25    0.95991
2105.50    0.95974
2105.75    0.95941
2106.00    0.95927
2106.25    0.95897
2106.50    0.95871
2106.75    0.95826
2107.00    0.95790
2107.25    0.95778
2107.50    0.95736
2107.75    0.95704
2108.00    0.95676
2108.25    0.95633
2108.50    0.95619
2108.75    0.95564
2109.00    0.95555
2109.25    0.95513
2109.50    0.95474
2109.75    0.95446
2110.00    0.95402
2110.25    0.95367
2110.50    0.95340
2110.75    0.95298
2111.00    0.95269
2111.25    0.95230
2111.50    0.95194
2111.75    0.95148
2112.00    0.95118
2112.25    0.95085
2112.50    0.95046
2112.75    0.95014
2113.00    0.94989
2113.25    0.94960
2113.50    0.94922
2113.75    0.94878
2114.00    0.94829
2114.25    0.94815
2114.50    0.94799
2114.75    0.94756
2115.00    0.94708
2115.25    0.94697
2115.50    0.94642
2115.75    0.94641
2116.00    0.94597
2116.25    0.94569
2116.50    0.94535
2116.75    0.94532
2117.00    0.94477
2117.25    0.94444
2117.50    0.94436
2117.75    0.94395
2118.00    0.94393
2118.25    0.94350
2118.50    0.94331
2118.75    0.94331
2119.00    0.94287
2119.25    0.94260
2119.50    0.94255
2119.75    0.94232
2120.00    0.94223
2120.25    0.94200
2120.50    0.94189
2120.75    0.94181
2121.00    0.94181
2121.25    0.94154
2121.50    0.94151
2121.75    0.94154
2122.00    0.94132
2122.25    0.94134
2122.50    0.94143
2122.75    0.94131
2123.00    0.94126
2123.25    0.94135
2123.50    0.94133
2123.75    0.94123
2124.00    0.94138
2124.25    0.94146
2124.50    0.94168
2124.75    0.94152
2125.00    0.94167
2125.25    0.94181
2125.50    0.94188
2125.75    0.94194
2126.00    0.94198
2126.25    0.94241
2126.50    0.94272
2126.75    0.94254
2127.00    0.94276
2127.25    0.94292
2127.50    0.94326
2127.75    0.94352
2128.00    0.94370
2128.25    0.94413
2128.50    0.94432
2128.75    0.94463
2129.00    0.94506
2129.25    0.94528
2129.50    0.94555
2129.75    0.94599
2130.00    0.94628
2130.25    0.94682
2130.50    0.94692
2130.75    0.94738
2131.00    0.94782
2131.25    0.94809
2131.50    0.94859
2131.75    0.94893
2132.00    0.94943
2132.25    0.94991
2132.50    0.95024
2132.75    0.95080
2133.00    0.95130
2133.25    0.95162
2133.50    0.95218
2133.75    0.95277
2134.00    0.95315
2134.25    0.95364
2134.50    0.95425
2134.75    0.95470
2135.00    0.95511
2135.25    0.95573
2135.50    0.95623
2135.75    0.95669
2136.00    0.95708
2136.25    0.95799
2136.50    0.95820
2136.75    0.95891
2137.00    0.95932
2137.25    0.95997
2137.50    0.96041
2137.75    0.96088
2138.00    0.96134
2138.25    0.96204
2138.50    0.96249
2138.75    0.96305
2139.00    0.96328
2139.25    0.96397
2139.50    0.96448
2139.75    0.96498
2140.00    0.96541
2140.25    0.96588
2140.50    0.96660
2140.75    0.96690
2141.00    0.96728
2141.25    0.96773
2141.50    0.96838
2141.75    0.96840
2142.00    0.96922
2142.25    0.96943
2142.50    0.96993
2142.75    0.97015
2143.00    0.97056
2143.25    0.97116
2143.50    0.97130
2143.75    0.97185
2144.00    0.97210
2144.25    0.97245
2144.50    0.97284
2144.75    0.97316
2145.00    0.97349
2145.25    0.97387
2145.50    0.97426
2145.75    0.97425
2146.00    0.97472
2146.25    0.97497
2146.50    0.97511
2146.75    0.97530
2147.00    0.97554
2147.25    0.97572
2147.50    0.97592
2147.75    0.97605
2148.00    0.97621
2148.25    0.97658
2148.50    0.97650
2148.75    0.97644
2149.00    0.97650
2149.25    0.97690
2149.50    0.97678
2149.75    0.97719
2150.00    0.97700
2150.25    0.97716
2150.50    0.97682
2150.75    0.97694
2151.00    0.97685
2151.25    0.97713
2151.50    0.97699
2151.75    0.97701
2152.00    0.97693
2152.25    0.97691
2152.50    0.97672
2152.75    0.97682
2153.00    0.97652
2153.25    0.97645
2153.50    0.97641
2153.75    0.97627
2154.00    0.97621
2154.25    0.97597
2154.50    0.97595
2154.75    0.97560
2155.00    0.97557
2155.25    0.97523
2155.50    0.97524
2155.75    0.97481
2156.00    0.97475
2156.25    0.97449
2156.50    0.97435
2156.75    0.97417
2157.00    0.97390
2157.25    0.97344
2157.50    0.97331
2157.75    0.97319
2158.00    0.97294
2158.25    0.97258
2158.50    0.97240
2158.75    0.97219
2159.00    0.97188
2159.25    0.97166
2159.50    0.97140
2159.75    0.97113
2160.00    0.97077
2160.25    0.97056
2160.50    0.97041
2160.75    0.97020
2161.00    0.96976
2161.25    0.96964
2161.50    0.96923
2161.75    0.96904
2162.00    0.96867
2162.25    0.96829
2162.50    0.96818
2162.75    0.96797
2163.00    0.96760
2163.25    0.96732
2163.50    0.96702
2163.75    0.96693
2164.00    0.96678
2164.25    0.96638
2164.50    0.96600
2164.75    0.96608
2165.00    0.96571
2165.25    0.96561
2165.50    0.96527
2165.75    0.96501
2166.00    0.96495
2166.25    0.96471
2166.50    0.96448
2166.75    0.96433
2167.00    0.96404
2167.25    0.96399
2167.50    0.96368
2167.75    0.96349
2168.00    0.96333
2168.25    0.96324
2168.50    0.96304
2168.75    0.96291
2169.00    0.96288
2169.25    0.96265
2169.50    0.96243
2169.75    0.96226
2170.00    0.96214
2170.25    0.96217
2170.50    0.96212
2170.75    0.96183
2171.00    0.96191
2171.25    0.96175
2171.50    0.96171
2171.75    0.96168
2172.00    0.96160
2172.25    0.96152
2172.50    0.96153
2172.75    0.96158
2173.00    0.96147
2173.25    0.96149
2173.50    0.96147
2173.75    0.96146
2174.00    0.96138
2174.25    0.96132
2174.50    0.96139
2174.75    0.96137
2175.00    0.96147
2175.25    0.96123
2175.50    0.96131
2175.75    0.96141
2176.00    0.96143
2176.25    0.96125
2176.50    0.96147
2176.75    0.96151
2177.00    0.96140
2177.25    0.96160
2177.50    0.96160
2177.75    0.96180
2178.00    0.96172
2178.25    0.96186
2178.50    0.96184
2178.75    0.96173
2179.00    0.96191
2179.25    0.96198
2179.50    0.96219
2179.75    0.96239
2180.00    0.96236
2180.25    0.96248
2180.50    0.96263
2180.75    0.96263
2181.00    0.96264
2181.25    0.96280
2181.50    0.96286
2181.75    0.96281
2182.00    0.96287
2182.25    0.96294
2182.50    0.96312
2182.75    0.96337
2183.00    0.96340
2183.25    0.96350
2183.50    0.96347
2183.75    0.96372
2184.00    0.96364
2184.25    0.96395
2184.50    0.96384
2184.75    0.96385
2185.00    0.96427
2185.25    0.96416
2185.50    0.96422
2185.75    0.96455
2186.00    0.96439
2186.25    0.96449
2186.50    0.96457
2186.75    0.96486
2187.00    0.96476
2187.25    0.96480
2187.50    0.96492
2187.75    0.96517
2188.00    0.96507
2188.25    0.96523
2188.50    0.96532
2188.75    0.96535
2189.00    0.96538
2189.25    0.96558
2189.50    0.96555
2189.75    0.96562
2190.00    0.96555
2190.25    0.96549
2190.50    0.96573
2190.75    0.96620
2191.00    0.96585
2191.25    0.96601
2191.50    0.96594
2191.75    0.96615
2192.00    0.96626
2192.25    0.96616
2192.50    0.96638
2192.75    0.96640
2193.00    0.96631
2193.25    0.96623
2193.50    0.96655
2193.75    0.96665
2194.00    0.96639
2194.25    0.96662
2194.50    0.96651
2194.75    0.96665
2195.00    0.96682
2195.25    0.96677
2195.50    0.96687
2195.75    0.96673
2196.00    0.96680
2196.25    0.96700
2196.50    0.96694
2196.75    0.96689
2197.00    0.96688
2197.25    0.96697
2197.50    0.96721
2197.75    0.96712
2198.00    0.96719
2198.25    0.96739
2198.50    0.96726
2198.75    0.96728
2199.00    0.96743
2199.25    0.96728
2199.50    0.96739
2199.75    0.96727
2200.00    0.96736
2200.25    0.96754
2200.50    0.96742
2200.75    0.96756
2201.00    0.96753
2201.25    0.96747
2201.50    0.96740
2201.75    0.96762
2202.00    0.96769
2202.25    0.96751
2202.50    0.96753
2202.75    0.96740
2203.00    0.96762
2203.25    0.96768
2203.50    0.96750
2203.75    0.96772
2204.00    0.96763
2204.25    0.96781
2204.50    0.96768
2204.75    0.96787
2205.00    0.96789
2205.25    0.96774
2205.50    0.96776
2205.75    0.96761
2206.00    0.96770
2206.25    0.96771
2206.50    0.96789
2206.75    0.96770
2207.00    0.96787
2207.25    0.96756
2207.50    0.96759
2207.75    0.96761
2208.00    0.96763
2208.25    0.96760
2208.50    0.96757
2208.75    0.96752
2209.00    0.96772
2209.25    0.96751
2209.50    0.96756
2209.75    0.96757
2210.00    0.96745
2210.25    0.96728
2210.50    0.96724
2210.75    0.96724
2211.00    0.96729
2211.25    0.96703
2211.50    0.96700
2211.75    0.96700
2212.00    0.96689
2212.25    0.96680
2212.50    0.96658
2212.75    0.96674
2213.00    0.96661
2213.25    0.96636
2213.50    0.96634
2213.75    0.96631
2214.00    0.96608
2214.25    0.96608
2214.50    0.96581
2214.75    0.96583
2215.00    0.96545
2215.25    0.96538
2215.50    0.96489
2215.75    0.96495
2216.00    0.96509
2216.25    0.96482
2216.50    0.96444
2216.75    0.96446
2217.00    0.96443
2217.25    0.96409
2217.50    0.96389
2217.75    0.96398
2218.00    0.96356
2218.25    0.96338
2218.50    0.96320
2218.75    0.96310
2219.00    0.96285
2219.25    0.96261
2219.50    0.96236
2219.75    0.96201
2220.00    0.96208
2220.25    0.96171
2220.50    0.96141
2220.75    0.96130
2221.00    0.96122
2221.25    0.96087
2221.50    0.96052
2221.75    0.96044
2222.00    0.96035
2222.25    0.95999
2222.50    0.95962
2222.75    0.95923
2223.00    0.95941
2223.25    0.95907
2223.50    0.95887
2223.75    0.95860
2224.00    0.95856
2224.25    0.95840
2224.50    0.95809
2224.75    0.95804
2225.00    0.95772
2225.25    0.95739
2225.50    0.95733
2225.75    0.95710
2226.00    0.95687
2226.25    0.95659
2226.50    0.95650
2226.75    0.95644
2227.00    0.95608
2227.25    0.95600
2227.50    0.95587
2227.75    0.95572
2228.00    0.95561
2228.25    0.95551
2228.50    0.95528
2228.75    0.95515
2229.00    0.95513
2229.25    0.95494
2229.50    0.95489
2229.75    0.95468
2230.00    0.95465
2230.25    0.95474
2230.50    0.95452
2230.75    0.95450
2231.00    0.95443
2231.25    0.95436
2231.50    0.95446
2231.75    0.95424
2232.00    0.95413
2232.25    0.95445
2232.50    0.95452
2232.75    0.95446
2233.00    0.95450
2233.25    0.95458
2233.50    0.95437
2233.75    0.95458
2234.00    0.95471
2234.25    0.95490
2234.50    0.95481
2234.75    0.95495
2235.00    0.95530
2235.25    0.95525
2235.50    0.95545
2235.75    0.95565
2236.00    0.95587
2236.25    0.95596
2236.50    0.95619
2236.75    0.95622
2237.00    0.95651
2237.25    0.95681
2237.50    0.95694
2237.75    0.95724
2238.00    0.95729
2238.25    0.95771
2238.50    0.95773
2238.75    0.95806
2239.00    0.95856
2239.25    0.95885
2239.50    0.95882
2239.75    0.95929
2240.00    0.95966
2240.25    0.95994
2240.50    0.96024
2240.75    0.96079
2241.00    0.96081
2241.25    0.96123
2241.50    0.96127
2241.75    0.96186
2242.00    0.96217
2242.25    0.96251
2242.50    0.96269
2242.75    0.96320
2243.00    0.96383
2243.25    0.96367
2243.50    0.96406
2243.75    0.96437
2244.00    0.96479
2244.25    0.96513
2244.50    0.96551
2244.75    0.96563
2245.00    0.96608
2245.25    0.96628
2245.50    0.96643
2245.75    0.96681
2246.00    0.96715
2246.25    0.96736
2246.50    0.96777
2246.75    0.96781
2247.00    0.96814
2247.25    0.96834
2247.50    0.96859
2247.75    0.96910
2248.00    0.96907
2248.25    0.96935
2248.50    0.96934
2248.75    0.96985
2249.00    0.96998
2249.25    0.97003
2249.50    0.97037
2249.75    0.97037
2250.00    0.97060
2250.25    0.97053
2250.50    0.97087
2250.75    0.97084
2251.00    0.97099
2251.25    0.97098
2251.50    0.97119
2251.75    0.97119
2252.00    0.97112
2252.25    0.97144
2252.50    0.97103
2252.75    0.97126
2253.00    0.97101
2253.25    0.97135
2253.50    0.97107
2253.75    0.97113
2254.00    0.97109
2254.25    0.97108
2254.50    0.97090
2254.75    0.97110
2255.00    0.97074
2255.25    0.97082
2255.50    0.97075
2255.75    0.97068
2256.00    0.97043
2256.25    0.97056
2256.50    0.97026
2256.75    0.97022
2257.00    0.96999
2257.25    0.97004
2257.50    0.96989
2257.75    0.96980
2258.00    0.96965
2258.25    0.96908
2258.50    0.96920
2258.75    0.96911
2259.00    0.96888
2259.25    0.96879
2259.50    0.96829
2259.75    0.96823
2260.00    0.96813
2260.25    0.96779
2260.50    0.96743
2260.75    0.96734
2261.00    0.96706
2261.25    0.96699
2261.50    0.96661
2261.75    0.96621
2262.00    0.96581
2262.25    0.96531
2262.50    0.96509
2262.75    0.96461
2263.00    0.96439
2263.25    0.96392
2263.50    0.96330
2263.75    0.96267
2264.00    0.96212
2264.25    0.96138
2264.50    0.96064
2264.75    0.96012
2265.00    0.95900
2265.25    0.95829
2265.50    0.95735
2265.75    0.95604
2266.00    0.95516
2266.25    0.95388
2266.50    0.95268
2266.75    0.95101
2267.00    0.94959
2267.25    0.94810
2267.50    0.94641
2267.75    0.94442
2268.00    0.94208
2268.25    0.94049
2268.50    0.93784
2268.75    0.93553
2269.00    0.93301
2269.25    0.92991
2269.50    0.92732
2269.75    0.92369
2270.00    0.92064
2270.25    0.91706
2270.50    0.91295
2270.75    0.90943
2271.00    0.90489
2271.25    0.90130
2271.50    0.89557
2271.75    0.89092
2272.00    0.88573
2272.25    0.87970
2272.50    0.87490
2272.75    0.86793
2273.00    0.86269
2273.25    0.85538
2273.50    0.84817
2273.75    0.84099
2274.00    0.83296
2274.25    0.82645
2274.50    0.81721
2274.75    0.80990
2275.00    0.80046
2275.25    0.79110
2275.50    0.78281
2275.75    0.77200
2276.00    0.76363
2276.25    0.75224
2276.50    0.74241
2276.75    0.73139
2277.00    0.71943
2277.25    0.70964
2277.50    0.69733
2277.75    0.68741
2278.00    0.67466
2278.25    0.66237
2278.50    0.65058
2278.75    0.63716
2279.00    0.62603
2279.25    0.61256
2279.50    0.60147
2279.75    0.58803
2280.00    0.57433
2280.25    0.56255
2280.50    0.54854
2280.75    0.53715
2281.00    0.52325
2281.25    0.51169
2281.50    0.49867
2281.75    0.48508
2282.00    0.47364
2282.25    0.46006
2282.50    0.44941
2282.75    0.43631
2283.00    0.42475
2283.25    0.41285
2283.50    0.40003
2283.75    0.38986
2284.00    0.37753
2284.25    0.36750
2284.50    0.35592
2284.75    0.34512
2285.00    0.33498
2285.25    0.32373
2285.50    0.31507
2285.75    0.30442
2286.00    0.29501
2286.25    0.28609
2286.50    0.27637
2286.75    0.26812
2287.00    0.25851
2287.25    0.25105
2287.50    0.24247
2287.75    0.23448
2288.00    0.22724
2288.25    0.21936
2288.50    0.21254
2288.75    0.20476
2289.00    0.19871
2289.25    0.19171
2289.50    0.18519
2289.75    0.17924
2290.00    0.17306
2290.25    0.16772
2290.50    0.16165
2290.75    0.15653
2291.00    0.15109
2291.25    0.14590
2291.50    0.14141
2291.75    0.13644
2292.00    0.13223
2292.25    0.12760
2292.50    0.12329
2292.75    0.11912
2293.00    0.11503
2293.25    0.11177
2293.50    0.10770
2293.75    0.10449
2294.00    0.10081
2294.25    0.09730
2294.50    0.09402
2294.75    0.09105
2295.00    0.08866
2295.25    0.08541
2295.50    0.08270
2295.75    0.07991
2296.00    0.07712
2296.25    0.07487
2296.50    0.07230
2296.75    0.07032
2297.00    0.06792
2297.25    0.06574
2297.50    0.06370
2297.75    0.06160
2298.00    0.05987
2298.25    0.05786
2298.50    0.05619
2298.75    0.05438
2299.00    0.05260
2299.25    0.05094
2299.50    0.04929
2299.75    0.04811
2300.00    0.04640
2300.25    0.04514
2300.50    0.04377
2300.75    0.04236
2301.00    0.04115
2301.25    0.03989
2301.50    0.03871
2301.75    0.03753
2302.00    0.03645
2302.25    0.03539
2302.50    0.03417
2302.75    0.03342
2303.00    0.03235
2303.25    0.03140
2303.50    0.03049
2303.75    0.02954
2304.00    0.02872
2304.25    0.02807
2304.50    0.02705
2304.75    0.02663
2305.00    0.02571
2305.25    0.02508
2305.50    0.02429
2305.75    0.02349
2306.00    0.02280
2306.25    0.02238
2306.50    0.02168
2306.75    0.02090
2307.00    0.02057
2307.25    0.01981
2307.50    0.01943
2307.75    0.01883
2308.00    0.01837
2308.25    0.01781
2308.50    0.01726
2308.75    0.01698
2309.00    0.01643
2309.25    0.01609
2309.50    0.01558
2309.75    0.01519
2310.00    0.01485
2310.25    0.01442
2310.50    0.01406
2310.75    0.01358
2311.00    0.01333
2311.25    0.01296
2311.50    0.01264
2311.75    0.01231
2312.00    0.01206
2312.25    0.01170
2312.50    0.01141
2312.75    0.01113
2313.00    0.01086
2313.25    0.01052
2313.50    0.01031
2313.75    0.01000
2314.00    0.00974
2314.25    0.00956
2314.50    0.00928
2314.75    0.00911
2315.00    0.00875
2315.25    0.00860
2315.50    0.00834
2315.75    0.00822
2316.00    0.00804
2316.25    0.00774
2316.50    0.00761
2316.75    0.00736
2317.00    0.00718
2317.25    0.00706
2317.50    0.00686
2317.75    0.00680
2318.00    0.00668
2318.25    0.00649
2318.50    0.00618
2318.75    0.00607
2319.00    0.00594
2319.25    0.00580
2319.50    0.00561
2319.75    0.00555
2320.00    0.00544
2320.25    0.00523
2320.50    0.00514
2320.75    0.00505
2321.00    0.00493
2321.25    0.00483
2321.50    0.00468
2321.75    0.00454
2322.00    0.00449
2322.25    0.00440
2322.50    0.00419
2322.75    0.00406
2323.00    0.00406
2323.25    0.00402
2323.50    0.00391
2323.75    0.00370
2324.00    0.00367
2324.25    0.00370
2324.50    0.00349
2324.75    0.00345
2325.00    0.00333
2325.25    0.00333
2325.50    0.00316
2325.75    0.00304
2326.00    0.00315
2326.25    0.00301
2326.50    0.00289
2326.75    0.00287
2327.00    0.00277
2327.25    0.00273
2327.50    0.00264
2327.75    0.00263
2328.00    0.00259
2328.25    0.00254
2328.50    0.00243
2328.75    0.00227
2329.00    0.00234
2329.25    0.00224
2329.50    0.00227
2329.75    0.00225
2330.00    0.00211
2330.25    0.00206
2330.50    0.00196
2330.75    0.00191
2331.00    0.00196
2331.25    0.00199
2331.50    0.00187
2331.75    0.00179
2332.00    0.00183
2332.25    0.00170
2332.50    0.00168
2332.75    0.00165
2333.00    0.00166
2333.25    0.00156
2333.50    0.00159
2333.75    0.00153
2334.00    0.00142
2334.25    0.00133
2334.50    0.00137
2334.75    0.00141
2335.00    0.00140
2335.25    0.00137
2335.50    0.00134
2335.75    0.00119
2336.00    0.00124
2336.25    0.00126
2336.50    0.00118
2336.75    0.00120
2337.00    0.00114
2337.25    0.00101
2337.50    0.00112
2337.75    0.00104
2338.00    0.00112
2338.25    0.00099
2338.50    0.00102
2338.75    0.00099
2339.00    0.00089
2339.25    0.00095
2339.50    0.00094
2339.75    0.00091
2340.00    0.00094
2340.25    0.00086
2340.50    0.00079
2340.75    0.00087
2341.00    0.00073
2341.25    0.00077
2341.50    0.00086
2341.75    0.00080
2342.00    0.00075
2342.25    0.00069
2342.50    0.00086
2342.75    0.00055
2343.00    0.00072
2343.25    0.00064
2343.50    0.00060
2343.75    0.00070
2344.00    0.00056
2344.25    0.00070
2344.50    0.00067
2344.75    0.00060
2345.00    0.00054
2345.25    0.00053
2345.50    0.00060
2345.75    0.00055
2346.00    0.00048
2346.25    0.00057
2346.50    0.00043
2346.75    0.00066
2347.00    0.00042
2347.25    0.00049
2347.50    0.00052
2347.75    0.00047
2348.00    0.00042
2348.25    0.00043
2348.50    0.00047
2348.75    0.00055
2349.00    0.00044
2349.25    0.00047
2349.50    0.00034
2349.75    0.00044
2350.00    0.00042
2350.25    0.00041
2350.50    0.00032
2350.75    0.00032
2351.00    0.00039
2351.25    0.00041
2351.50    0.00032
2351.75    0.00031
2352.00    0.00033
2352.25    0.00038
2352.50    0.00034
2352.75    0.00030
2353.00    0.00038
2353.25    0.00017
2353.50    0.00030
2353.75    0.00035
2354.00    0.00036
2354.25    0.00028
2354.50    0.00023
2354.75    0.00037
2355.00    0.00033
2355.25    0.00013
2355.50    0.00034
2355.75    0.00019
2356.00    0.00027
2356.25    0.00025
2356.50    0.00025
2356.75    0.00033
2357.00    0.00030
2357.25    0.00028
2357.50    0.00023
2357.75    0.00025
2358.00    0.00017
2358.25    0.00020
2358.50    0.00021
2358.75    0.00025
2359.00    0.00032
2359.25    0.00020
2359.50    0.00021
2359.75    0.00020
2360.00    0.00023
2360.25    0.00018
2360.50    0.00017
2360.75    0.00018
2361.00    0.00023
2361.25    0.00022
2361.50    0.00019
2361.75    0.00017
2362.00    0.00019
2362.25    0.00026
2362.50    0.00019
2362.75    0.00018
2363.00    0.00020
2363.25    0.00003
2363.50    0.00008
2363.75    0.00021
2364.00    0.00010
2364.25    0.00007
2364.50    0.00016
2364.75    0.00017
2365.00    0.00022
2365.25    0.00014
2365.50    0.00013
2365.75    0.00003
2366.00    0.00027
2366.25    0.00018
2366.50    0.00014
2366.75    0.00018
2367.00    0.00014
2367.25    0.00009
2367.50    0.00006
2367.75    0.00012
2368.00    0.00015
2368.25    0.00009
2368.50    0.00018
2368.75    0.00007
2369.00    0.00022
2369.25    0.00010
2369.50    0.00007
2369.75    0.00005
2370.00    0.00010
2370.25    0.00007
2370.50    0.00007
2370.75    0.00033
2371.00    0.00013
2371.25    0.00004
2371.50    0.00006
2371.75    0.00002
2372.00    0.00011
2372.25    0.00011
2372.50    0.00017
2372.75    0.00010
2373.00    0.00007
2373.25    0.00014
2373.50    0.00005
2373.75    0.00011
2374.00    0.00008
2374.25    0.00005
2374.50    0.00009
2374.75    0.00010
2375.00    0.00004
2375.25    0.00008
2375.50    0.00004
2375.75    0.00005
2376.00    0.00012
2376.25    0.00007
2376.50    0.00002
2376.75    0.00013
2377.00    0.00000
2377.25    0.00007
2377.50    0.00013
2377.75    0.00009
2378.00    0.00010
2378.25    0.00010
2378.50    0.00013
2378.75    0.00014
2379.00    0.00010
2379.25    0.00009
2379.50    0.00000
2379.75    0.00007
2380.00    0.00003
2380.25    0.00006
2380.50    0.00014
2380.75    0.00013
2381.00    0.00008
2381.25    0.00004
2381.50    0.00010
2381.75    0.00001
2382.00    0.00010
2382.25    0.00014
2382.50    0.00004
2382.75    0.00005
2383.00    0.00005
2383.25    0.00000
2383.50    0.00008
2383.75    0.00003
2384.00    0.00010
2384.25    0.00011
2384.50    0.00002
2384.75    0.00014
2385.00    0.00007
2385.25    0.00018
2385.50    0.00008
2385.75    0.00002
2386.00    0.00005
2386.25    0.00007
2386.50    0.00018
2386.75    0.00008
2387.00    0.00001
2387.25    0.00007
2387.50    0.00010
2387.75    0.00006
2388.00    0.00002
2388.25    0.00016
2388.50    0.00013
2388.75    0.00007
2389.00    0.00009
2389.25    0.00012
2389.50    0.00013
2389.75    0.00006
2390.00    0.00008
2390.25    0.00011
2390.50    0.00010
2390.75    0.00002
2391.00    0.00001
2391.25    0.00021
2391.50    0.00014
2391.75    0.00013
2392.00    0.00014
2392.25    0.00006
2392.50    0.00010
2392.75    0.00002
2393.00    0.00003
2393.25    0.00004
2393.50    0.00004
2393.75    0.00012
2394.00    0.00010
2394.25    0.00015
2394.50    0.00020
2394.75    0.00002
2395.00    0.00005
2395.25    0.00014
2395.50    0.00005
2395.75    0.00010
2396.00    0.00019
2396.25    0.00019
2396.50    0.00002
2396.75    0.00004
2397.00    0.00008
2397.25    0.00018
2397.50    0.00007
2397.75    0.00016
2398.00    0.00008
2398.25    0.00007
2398.50    0.00008
2398.75    0.00004
2399.00    0.00011
2399.25    0.00004
2399.50    0.00018
2399.75    0.00015
2400.00    0.00015
2400.25    0.00027
2400.50    0.00030
2400.75    0.00018
2401.00    0.00013
2401.25    0.00017
2401.50    0.00012
2401.75    0.00005
2402.00    0.00011
2402.25    0.00023
2402.50    0.00007
2402.75    0.00014
2403.00    0.00014
2403.25    0.00010
2403.50    0.00005
2403.75    0.00003
2404.00    0.00011
2404.25    0.00003
2404.50    0.00004
2404.75    0.00007
2405.00    0.00009
2405.25    0.00009
2405.50    0.00007
2405.75    0.00001
2406.00    0.00005
2406.25    0.00001
2406.50    0.00004
2406.75    0.00006
2407.00    0.00003
2407.25    0.00007
2407.50    0.00010
2407.75    0.00005
2408.00    0.00004
2408.25    0.00007
2408.50    0.00008
2408.75    0.00006
2409.00    0.00011
2409.25    0.00002
2409.50    0.00004
2409.75    0.00009
2410.00    0.00008
2410.25    0.00010
2410.50    0.00004
2410.75    0.00001
2411.00    0.00002
2411.25    0.00005
2411.50    0.00008
2411.75    0.00013
2412.00    0.00004
2412.25    0.00005
2412.50    0.00003
2412.75    0.00001
2413.00    0.00002
2413.25    0.00003
2413.50    0.00003
2413.75    0.00002
2414.00    0.00001
2414.25    0.00002
2414.50    0.00001
2414.75    0.00000
2415.00    0.00005
2415.25    0.00004
2415.50    0.00003
2415.75    0.00011
2416.00    0.00010
2416.25    0.00007
2416.50    0.00014
2416.75    0.00003
2417.00    0.00014
2417.25    0.00003
2417.50    0.00009
2417.75    0.00009
2418.00    0.00003
2418.25    0.00005
2418.50    0.00005
2418.75    0.00006
2419.00    0.00003
2419.25    0.00007
2419.50    0.00005
2419.75    0.00000
2420.00    0.00002
2420.25    0.00001
2420.50    0.00007
2420.75    0.00032
2421.00    0.00002
2421.25    0.00003
2421.50    0.00006
2421.75    0.00001
2422.00    0.00006
2422.25    0.00009
2422.50    0.00003
2422.75    0.00007
2423.00    0.00014
2423.25    0.00008
2423.50    0.00005
2423.75    0.00006
2424.00    0.00009
2424.25    0.00006
2424.50    0.00001
2424.75    0.00002
2425.00    0.00007
2425.25    0.00005
2425.50    0.00005
2425.75    0.00004
2426.00    0.00013
2426.25    0.00002
2426.50    0.00013
2426.75    0.00016
2427.00    0.00002
2427.25    0.00003
2427.50    0.00006
2427.75    0.00003
2428.00    0.00014
2428.25    0.00014
2428.50    0.00016
2428.75    0.00001
2429.00    0.00002
2429.25    0.00003
2429.50    0.00005
2429.75    0.00008
2430.00    0.00005
2430.25    0.00001
2430.50    0.00005
2430.75    0.00007
2431.00    0.00000
2431.25    0.00014
2431.50    0.00008
2431.75    0.00008
2432.00    0.00004
2432.25    0.00001
2432.50    0.00003
2432.75    0.00003
2433.00    0.00003
2433.25    0.00014
2433.50    0.00021
2433.75    0.00003
2434.00    0.00000
2434.25    0.00005
2434.50    0.00002
2434.75    0.00008
2435.00    0.00005
2435.25    0.00013
2435.50    0.00014
2435.75    0.00000
2436.00    0.00001
2436.25    0.00012
2436.50    0.00013
2436.75    0.00002
2437.00    0.00005
2437.25    0.00003
2437.50    0.00006
2437.75    0.00003
2438.00    0.00002
2438.25    0.00001
2438.50    0.00005
2438.75    0.00006
2439.00    0.00009
2439.25    0.00005
2439.50    0.00000
2439.75    0.00011
2440.00    0.00004
2440.25    0.00007
2440.50    0.00002
2440.75    0.00003
2441.00    0.00005
2441.25    0.00004
2441.50    0.00005
2441.75    0.00007
2442.00    0.00006
2442.25    0.00002
2442.50    0.00002
2442.75    0.00001
2443.00    0.00004
2443.25    0.00006
2443.50    0.00002
2443.75    0.00001
2444.00    0.00011
2444.25    0.00008
2444.50    0.00002
2444.75    0.00002
2445.00    0.00013
2445.25    0.00003
2445.50    0.00000
2445.75    0.00000
2446.00    0.00004
2446.25    0.00006
2446.50    0.00008
2446.75    0.00008
2447.00    0.00007
2447.25    0.00004
2447.50    0.00005
2447.75    0.00002
2448.00    0.00008
2448.25    0.00013
2448.50    0.00006
2448.75    0.00009
2449.00    0.00012
2449.25    0.00005
2449.50    0.00000
2449.75    0.00003
2450.00    0.00016
2450.25    0.00008
2450.50    0.00006
2450.75    0.00003
2451.00    0.00009
2451.25    0.00010
2451.50    0.00001
2451.75    0.00005
2452.00    0.00006
2452.25    0.00010
2452.50    0.00004
2452.75    0.00007
2453.00    0.00013
2453.25    0.00000
2453.50    0.00007
2453.75    0.00000
2454.00    0.00006
2454.25    0.00010
2454.50    0.00008
2454.75    0.00010
2455.00    0.00018
2455.25    0.00000
2455.50    0.00012
2455.75    0.00008
2456.00    0.00006
2456.25    0.00013
2456.50    0.00015
2456.75    0.00005
2457.00    0.00006
2457.25    0.00007
2457.50    0.00003
2457.75    0.00011
2458.00    0.00014
2458.25    0.00000
2458.50    0.00003
2458.75    0.00001
2459.00    0.00007
2459.25    0.00019
2459.50    0.00004
2459.75    0.00008
2460.00    0.00003
2460.25    0.00001
2460.50    0.00012
2460.75    0.00006
2461.00    0.00002
2461.25    0.00015
2461.50    0.00010
2461.75    0.00007
2462.00    0.00007
2462.25    0.00012
2462.50    0.00005
2462.75    0.00001
2463.00    0.00005
2463.25    0.00004
2463.50    0.00001
2463.75    0.00003
2464.00    0.00001
2464.25    0.00000
2464.50    0.00000
2464.75    0.00000
2465.00    0.00010
2465.25    0.00002
2465.50    0.00008
2465.75    0.00007
2466.00    0.00003
2466.25    0.00004
2466.50    0.00001
2466.75    0.00011
2467.00    0.00004
2467.25    0.00001
2467.50    0.00002
2467.75    0.00011
2468.00    0.00015
2468.25    0.00003
2468.50    0.00005
2468.75    0.00008
2469.00    0.00005
2469.25    0.00002
2469.50    0.00004
2469.75    0.00006
2470.00    0.00007
2470.25    0.00000
2470.50    0.00004
2470.75    0.00006
2471.00    0.00007
2471.25    0.00003
2471.50    0.00003
2471.75    0.00007
2472.00    0.00001
2472.25    0.00007
2472.50    0.00003
2472.75    0.00007
2473.00    0.00003
2473.25    0.00007
2473.50    0.00010
2473.75    0.00015
2474.00    0.00002
2474.25    0.00010
2474.50    0.00006
2474.75    0.00003
2475.00    0.00011
2475.25    0.00001
2475.50    0.00002
2475.75    0.00013
2476.00    0.00010
2476.25    0.00000
2476.50    0.00001
2476.75    0.00016
2477.00    0.00011
2477.25    0.00004
2477.50    0.00004
2477.75    0.00003
2478.00    0.00007
2478.25    0.00007
2478.50    0.00002
2478.75    0.00001
2479.00    0.00014
2479.25    0.00006
2479.50    0.00005
2479.75    0.00009
2480.00    0.00007
2480.25    0.00002
2480.50    0.00001
2480.75    0.00016
2481.00    0.00024
2481.25    0.00004
2481.50    0.00003
2481.75    0.00004
2482.00    0.00001
2482.25    0.00002
2482.50    0.00005
2482.75    0.00006
2483.00    0.00005
2483.25    0.00014
2483.50    0.00000
2483.75    0.00003
2484.00    0.00002
2484.25    0.00001
2484.50    0.00005
2484.75    0.00006
2485.00    0.00000
2485.25    0.00002
2485.50    0.00001
2485.75    0.00004
2486.00    0.00003
2486.25    0.00000
2486.50    0.00007
2486.75    0.00001
2487.00    0.00003
2487.25    0.00006
2487.50    0.00002
2487.75    0.00002
2488.00    0.00006
2488.25    0.00012
2488.50    0.00001
2488.75    0.00011
2489.00    0.00010
2489.25    0.00006
2489.50    0.00003
2489.75    0.00001
2490.00    0.00000
2490.25    0.00004
2490.50    0.00000
2490.75    0.00008
2491.00    0.00009
2491.25    0.00012
2491.50    0.00007
2491.75    0.00007
2492.00    0.00007
2492.25    0.00006
2492.50    0.00010
2492.75    0.00000
2493.00    0.00007
2493.25    0.00012
2493.50    0.00010
2493.75    0.00010
2494.00    0.00016
2494.25    0.00003
2494.50    0.00005
2494.75    0.00004
2495.00    0.00007
2495.25    0.00009
2495.50    0.00003
2495.75    0.00012
2496.00    0.00010
2496.25    0.00002
2496.50    0.00008
2496.75    0.00001
2497.00    0.00000
2497.25    0.00003
2497.50    0.00007
2497.75    0.00012
2498.00    0.00002
2498.25    0.00004
2498.50    0.00000
2498.75    0.00002
2499.00    0.00007
2499.25    0.00004
2499.50    0.00002
2499.75    0.00002
2500.00    0.00011
2510.00    0.00000
2520.00    0.00000
